* Sea-Bird SBE37 Data File:
* FileName = C:\Documents and Settings\Usuário(a)\Desktop\CTD_LAGOA\stations_1-1911_piloto.asc
* Software Version 1.59
* Temperature SN = 2603
* Conductivity SN = 2603
* System UpLoad Time = Jan 27 2017 13:53:11
* ds
* SBE37-SM V 2.2  SERIAL NO. 2603    27 Jan 2017  13:26:10
* not logging: received stop command
* sample interval = 5 seconds
* samplenumber = 1911, free = 188739
* do not transmit real-time data
* store time with each sample
* A/D cycles to average = 4
* serial sync mode disabled
* wait time after serial sync sampling = 30 seconds
* temperature = 26.19 deg C

* S>
* SBE37-SM V 2.2  2603
* temperature:  03-jul-03
*     TA0 = -4.676577e-05
*     TA1 = 2.858589e-04
*     TA2 = -3.157813e-06
*     TA3 = 1.760260e-07
* conductivity:  03-jul-03
*     G = -1.015722e+00
*     H = 1.432405e-01
*     I = -1.247808e-04
*     J = 3.243975e-05
*     CPCOR = -9.570000e-08
*     CTCOR = 3.250000e-06
*     WBOTC = -2.877586e-06
* pressure S/N 2174, range = 160 psia:  02-may-03
*     PA0 = 8.891736e-03
*     PA1 = 7.597038e-03
*     PA2 = -7.197811e-10
*     PTCA0 = -6.305409e+00
*     PTCA1 = -1.828622e-01
*     PTCA2 = 1.170296e-02
*     PTCSB0 = 2.502788e+01
*     PTCSB1 = -1.025000e-03
*     PTCSB2 = 0.000000e+00
*     POFFSET = 0.000000e+00
* rtc:  03-jul-03 
*     RTCA0 = 9.999801e-01
*     RTCA1 = 1.726223e-06
*     RTCA2 = -0.000000e-36

* S> 
# nquan = 5
# nvalues =     1911
# units = metric
# name 0 = t090: temperature, ITS-90 [deg C]
# name 1 = c0S/m: conductivity [S/m]
# name 2 = pr: pressure [db]
# name 3 = timeJ: time [julian days]
# name 4 = flag:  0.000e+00
# span 0 = 22.1516, 31.8219           
# span 1 = 0.00004, 5.38154           
# span 2 = -0.179, 7.837              
# span 3 = 25.591771, 25.761019       
# span 4 = 0.000e+00, 0.000e+00       
# interval = seconds: 5
# start_time = Jan 25 2017 15:37:22
# bad_flag = -9.990e-29
# file_type = ascii
*END*
    30.3380    0.00012     -0.137  25.591771  0.000e+00
    30.6245    0.00012     -0.137  25.591863  0.000e+00
    30.8720    0.00011     -0.135  25.591944  0.000e+00
    30.9742    0.00011     -0.137  25.592025  0.000e+00
    31.1748    0.00011     -0.139  25.592106  0.000e+00
    31.4095    0.00011     -0.137  25.592187  0.000e+00
    31.5702    0.00012     -0.141  25.592269  0.000e+00
    31.6635    0.00011     -0.141  25.592350  0.000e+00
    31.5988    0.00011     -0.141  25.592431  0.000e+00
    31.8219    0.00011     -0.141  25.592512  0.000e+00
    31.6752    0.00011     -0.141  25.592593  0.000e+00
    28.1006    3.05170      0.001  25.592674  0.000e+00
    27.7047    3.41844      0.134  25.592755  0.000e+00
    27.6291    3.93170      0.258  25.592836  0.000e+00
    27.2119    4.08375      0.199  25.592917  0.000e+00
    26.8867    4.73379      0.498  25.592998  0.000e+00
    26.6336    4.99600      0.697  25.593079  0.000e+00
    26.6366    5.12371      0.827  25.593160  0.000e+00
    26.5085    5.18080      1.217  25.593241  0.000e+00
    26.4885    5.22330      1.339  25.593322  0.000e+00
    26.4340    5.23135      1.578  25.593403  0.000e+00
    26.4189    5.24276      1.875  25.593484  0.000e+00
    26.3637    5.25642      2.598  25.593565  0.000e+00
    26.2188    5.28212      3.062  25.593646  0.000e+00
    26.0284    5.35295      3.927  25.593727  0.000e+00
    26.0186    5.37518      4.620  25.593808  0.000e+00
    26.0236    5.38154      5.438  25.593889  0.000e+00
    26.0185    5.38000      6.019  25.593970  0.000e+00
    26.0114    5.38042      6.538  25.594051  0.000e+00
    26.0016    5.37698      6.436  25.594132  0.000e+00
    26.0048    5.37389      7.556  25.594213  0.000e+00
    26.0074    5.37390      7.837  25.594294  0.000e+00
    26.0133    5.37310      7.001  25.594375  0.000e+00
    26.0133    5.37129      5.927  25.594456  0.000e+00
    26.0185    5.37012      4.852  25.594537  0.000e+00
    26.0266    4.85372      3.287  25.594618  0.000e+00
    26.3793    4.27052      1.561  25.594699  0.000e+00
    27.3591    1.85102     -0.078  25.594780  0.000e+00
    26.5570    0.00010     -0.078  25.594861  0.000e+00
    26.5697    0.00010     -0.081  25.594942  0.000e+00
    26.7473    0.00010     -0.083  25.595023  0.000e+00
    26.9323    0.00010     -0.087  25.595104  0.000e+00
    27.1274    0.00010     -0.089  25.595185  0.000e+00
    27.2781    0.00010     -0.092  25.595266  0.000e+00
    27.3824    0.00009     -0.094  25.595347  0.000e+00
    27.2076    0.00010     -0.096  25.595428  0.000e+00
    27.0363    0.00010     -0.098  25.595509  0.000e+00
    26.9103    0.00010     -0.099  25.595590  0.000e+00
    26.7822    0.00010     -0.099  25.595671  0.000e+00
    26.7540    0.00010     -0.101  25.595752  0.000e+00
    26.8768    0.00010     -0.103  25.595833  0.000e+00
    26.8452    0.00010     -0.105  25.595914  0.000e+00
    26.9910    0.00009     -0.107  25.595995  0.000e+00
    27.1124    0.00009     -0.108  25.596076  0.000e+00
    27.1171    0.00009     -0.110  25.596157  0.000e+00
    27.1842    0.00009     -0.112  25.596238  0.000e+00
    27.2006    0.00009     -0.112  25.596319  0.000e+00
    27.2758    0.00009     -0.114  25.596400  0.000e+00
    27.3239    0.00009     -0.116  25.596481  0.000e+00
    27.4423    0.00009     -0.116  25.596562  0.000e+00
    27.4463    0.00009     -0.117  25.596644  0.000e+00
    27.4538    0.00009     -0.117  25.596725  0.000e+00
    27.5576    0.00009     -0.119  25.596806  0.000e+00
    27.6004    0.00009     -0.121  25.596887  0.000e+00
    27.5324    0.00009     -0.121  25.596968  0.000e+00
    27.4857    0.00009     -0.123  25.597049  0.000e+00
    27.5772    0.00009     -0.125  25.597130  0.000e+00
    27.6903    0.00009     -0.125  25.597211  0.000e+00
    27.7901    0.00009     -0.126  25.597292  0.000e+00
    27.7530    0.00009     -0.128  25.597373  0.000e+00
    27.7192    0.00009     -0.128  25.597454  0.000e+00
    27.7965    0.00009     -0.128  25.597535  0.000e+00
    27.7810    0.00009     -0.130  25.597616  0.000e+00
    27.8561    0.00009     -0.130  25.597697  0.000e+00
    27.9288    0.00009     -0.144  25.597778  0.000e+00
    27.9644    0.00008     -0.146  25.597859  0.000e+00
    28.0007    0.00009     -0.146  25.597940  0.000e+00
    28.0471    0.00009     -0.146  25.598021  0.000e+00
    28.0504    0.00008     -0.148  25.598102  0.000e+00
    28.0461    0.00008     -0.152  25.598183  0.000e+00
    28.0066    0.00009     -0.152  25.598264  0.000e+00
    28.0383    0.00008     -0.152  25.598345  0.000e+00
    28.1782    0.00009     -0.152  25.598426  0.000e+00
    28.3325    0.00009     -0.153  25.598507  0.000e+00
    28.3235    0.00009     -0.155  25.598588  0.000e+00
    28.3179    0.00009     -0.155  25.598669  0.000e+00
    28.2880    0.00009     -0.155  25.598750  0.000e+00
    28.2089    0.00009     -0.157  25.598831  0.000e+00
    28.1539    0.00008     -0.157  25.598912  0.000e+00
    28.1483    0.00008     -0.157  25.598993  0.000e+00
    28.2047    0.00008     -0.157  25.599074  0.000e+00
    28.2561    0.00008     -0.159  25.599155  0.000e+00
    28.2925    0.00008     -0.159  25.599236  0.000e+00
    28.3583    0.00008     -0.159  25.599317  0.000e+00
    28.4017    0.00008     -0.159  25.599398  0.000e+00
    28.4234    0.00008     -0.159  25.599479  0.000e+00
    28.4991    0.00008     -0.162  25.599560  0.000e+00
    28.4662    0.00008     -0.162  25.599641  0.000e+00
    28.4933    0.00008     -0.162  25.599722  0.000e+00
    28.5403    0.00008     -0.162  25.599803  0.000e+00
    28.6068    0.00008     -0.164  25.599884  0.000e+00
    28.6729    0.00008     -0.164  25.599965  0.000e+00
    28.6476    0.00008     -0.162  25.600046  0.000e+00
    28.7027    0.00008     -0.162  25.600127  0.000e+00
    28.7099    0.00008     -0.162  25.600208  0.000e+00
    28.8634    0.00008     -0.162  25.600289  0.000e+00
    28.9603    0.00008     -0.162  25.600370  0.000e+00
    28.9822    0.00009     -0.162  25.600451  0.000e+00
    29.0165    0.00009     -0.162  25.600532  0.000e+00
    29.0032    0.00008     -0.161  25.600613  0.000e+00
    29.1507    0.00005     -0.161  25.600694  0.000e+00
    29.1942    0.00007     -0.161  25.600775  0.000e+00
    29.2508    0.00007     -0.161  25.600856  0.000e+00
    29.3816    0.00008     -0.159  25.600937  0.000e+00
    29.4594    0.00008     -0.159  25.601019  0.000e+00
    29.6622    0.00008     -0.159  25.601100  0.000e+00
    29.7596    0.00008     -0.159  25.601181  0.000e+00
    29.8322    0.00007     -0.159  25.601262  0.000e+00
    29.7484    0.00007     -0.157  25.601343  0.000e+00
    29.7052    0.00007     -0.155  25.601424  0.000e+00
    29.8425    0.00007     -0.155  25.601505  0.000e+00
    29.9743    0.00007     -0.155  25.601586  0.000e+00
    29.9648    0.00007     -0.157  25.601667  0.000e+00
    29.9173    0.00007     -0.157  25.601748  0.000e+00
    29.8790    0.00007     -0.157  25.601829  0.000e+00
    29.8430    0.00007     -0.157  25.601910  0.000e+00
    29.8262    0.00007     -0.157  25.601991  0.000e+00
    29.7860    0.00007     -0.157  25.602072  0.000e+00
    29.8512    0.00007     -0.155  25.602153  0.000e+00
    29.9572    0.00007     -0.155  25.602234  0.000e+00
    29.8873    0.00008     -0.152  25.602315  0.000e+00
    27.6539    0.42713      0.115  25.602396  0.000e+00
    27.6236    0.26420      0.095  25.602477  0.000e+00
    27.6767    0.28657     -0.094  25.602558  0.000e+00
    27.6878    0.23783     -0.029  25.602639  0.000e+00
    27.6682    0.23548     -0.013  25.602720  0.000e+00
    27.7018    0.24223     -0.027  25.602801  0.000e+00
    27.6960    0.23575      0.023  25.602882  0.000e+00
    27.6856    0.23655      0.034  25.602963  0.000e+00
    27.6520    0.23613     -0.002  25.603044  0.000e+00
    27.6853    0.23635      0.032  25.603125  0.000e+00
    27.0714    0.27774      0.516  25.603206  0.000e+00
    27.2793    1.40465      0.852  25.603287  0.000e+00
    27.4664    1.99819      1.082  25.603368  0.000e+00
    27.7992    2.21870      1.460  25.603449  0.000e+00
    28.1709    2.69316      1.882  25.603530  0.000e+00
    28.1916    2.86467      2.274  25.603611  0.000e+00
    28.1935    2.88089      2.728  25.603692  0.000e+00
    28.2123    2.90954      2.801  25.603773  0.000e+00
    28.2143    2.91596      2.870  25.603854  0.000e+00
    28.2164    2.93504      2.985  25.603935  0.000e+00
    28.2154    2.95215      3.005  25.604016  0.000e+00
    28.2172    2.95541      3.057  25.604097  0.000e+00
    28.2167    2.95436      3.075  25.604178  0.000e+00
    28.2162    2.93334      2.859  25.604259  0.000e+00
    28.2008    2.87636      2.411  25.604340  0.000e+00
    28.2033    2.85797      2.422  25.604421  0.000e+00
    28.2147    2.85648      2.960  25.604502  0.000e+00
    28.1939    2.86074      2.237  25.604583  0.000e+00
    27.3450    1.54791      0.463  25.604664  0.000e+00
    26.9659    0.00465     -0.119  25.604745  0.000e+00
    26.4154    0.00008     -0.132  25.604826  0.000e+00
    26.0379    0.00008     -0.128  25.604907  0.000e+00
    26.0875    0.00008     -0.130  25.604988  0.000e+00
    26.2139    0.00009     -0.130  25.605069  0.000e+00
    26.3887    0.00008     -0.130  25.605150  0.000e+00
    26.5564    0.00008     -0.132  25.605231  0.000e+00
    26.6954    0.00008     -0.132  25.605313  0.000e+00
    26.7520    0.00008     -0.132  25.605394  0.000e+00
    26.8585    0.00008     -0.132  25.605475  0.000e+00
    26.9557    0.00008     -0.132  25.605556  0.000e+00
    27.0290    0.00008     -0.132  25.605637  0.000e+00
    26.9693    0.00008     -0.132  25.605718  0.000e+00
    26.9998    0.00008     -0.130  25.605799  0.000e+00
    27.0558    0.00008     -0.130  25.605880  0.000e+00
    27.0900    0.00008     -0.130  25.605961  0.000e+00
    27.1335    0.00008     -0.130  25.606042  0.000e+00
    27.2707    0.00008     -0.130  25.606123  0.000e+00
    27.3861    0.00008     -0.130  25.606204  0.000e+00
    27.5240    0.00008     -0.130  25.606285  0.000e+00
    27.5485    0.00008     -0.128  25.606366  0.000e+00
    27.4800    0.00008     -0.128  25.606447  0.000e+00
    27.4562    0.00008     -0.130  25.606528  0.000e+00
    27.3658    0.00008     -0.128  25.606609  0.000e+00
    27.2759    0.00008     -0.128  25.606690  0.000e+00
    27.1810    0.00009     -0.128  25.606771  0.000e+00
    27.2757    0.00009     -0.128  25.606852  0.000e+00
    27.4149    0.00009     -0.130  25.606933  0.000e+00
    27.3815    0.00009     -0.128  25.607014  0.000e+00
    27.4700    0.54457      0.413  25.607095  0.000e+00
    27.3135    0.51694      0.044  25.607176  0.000e+00
    27.3209    0.51950      0.068  25.607257  0.000e+00
    27.3290    0.52333      0.016  25.607338  0.000e+00
    27.3472    0.55029      0.188  25.607419  0.000e+00
    28.0497    1.18165      1.050  25.607500  0.000e+00
    27.9755    3.83673      1.690  25.607581  0.000e+00
    26.1562    5.01016      2.609  25.607662  0.000e+00
    25.7139    5.14831      3.102  25.607743  0.000e+00
    25.6904    5.20841      4.201  25.607824  0.000e+00
    25.6761    5.22995      4.557  25.607905  0.000e+00
    25.6729    5.22689      4.934  25.607986  0.000e+00
    25.6736    5.22615      4.947  25.608067  0.000e+00
    25.6753    5.22949      4.796  25.608148  0.000e+00
    25.6780    5.22627      4.228  25.608229  0.000e+00
    25.8011    5.11781      2.719  25.608310  0.000e+00
    28.4519    2.28052      1.129  25.608391  0.000e+00
    27.3016    0.69177     -0.130  25.608472  0.000e+00
    26.2333    0.00007     -0.134  25.608553  0.000e+00
    25.9992    0.00007     -0.132  25.608634  0.000e+00
    25.9902    0.00008     -0.130  25.608715  0.000e+00
    26.0099    0.00006     -0.130  25.608796  0.000e+00
    26.0478    0.00007     -0.128  25.608877  0.000e+00
    26.1137    0.00008     -0.128  25.608958  0.000e+00
    26.2613    0.00007     -0.128  25.609039  0.000e+00
    26.4251    0.00007     -0.128  25.609120  0.000e+00
    26.5089    0.00007     -0.128  25.609201  0.000e+00
    26.6866    0.00007     -0.130  25.609282  0.000e+00
    26.8136    0.00007     -0.130  25.609363  0.000e+00
    26.8133    0.00008     -0.130  25.609444  0.000e+00
    26.7946    0.00007     -0.130  25.609525  0.000e+00
    26.8027    0.00007     -0.130  25.609606  0.000e+00
    26.8657    0.00007     -0.130  25.609688  0.000e+00
    26.9437    0.00007     -0.130  25.609769  0.000e+00
    27.0154    0.00007     -0.128  25.609850  0.000e+00
    27.0427    0.00007     -0.128  25.609931  0.000e+00
    27.0691    0.00007     -0.128  25.610012  0.000e+00
    27.0369    0.00007     -0.128  25.610093  0.000e+00
    27.0347    0.00007     -0.128  25.610174  0.000e+00
    27.0324    0.00007     -0.128  25.610255  0.000e+00
    27.0475    0.00007     -0.128  25.610336  0.000e+00
    26.9350    0.00007     -0.126  25.610417  0.000e+00
    26.8271    0.00007     -0.126  25.610498  0.000e+00
    26.7269    0.00007     -0.125  25.610579  0.000e+00
    26.6530    0.09032     -0.125  25.610660  0.000e+00
    28.2398    0.89160      0.125  25.610741  0.000e+00
    28.2160    0.88654      0.787  25.610822  0.000e+00
    28.4670    1.39642      1.922  25.610903  0.000e+00
    26.5208    3.10393      2.172  25.610984  0.000e+00
    25.8334    4.91165      2.249  25.611065  0.000e+00
    28.0112    4.01577      1.778  25.611146  0.000e+00
    28.6950    2.54812      1.544  25.611227  0.000e+00
    28.3546    1.76562      0.917  25.611308  0.000e+00
    28.2751    1.10152     -0.081  25.611389  0.000e+00
    27.4461    0.00689     -0.137  25.611470  0.000e+00
    26.4650    0.00008     -0.139  25.611551  0.000e+00
    26.2986    0.00008     -0.134  25.611632  0.000e+00
    26.1865    0.00008     -0.134  25.611713  0.000e+00
    26.0685    0.00008     -0.135  25.611794  0.000e+00
    26.0058    0.00008     -0.134  25.611875  0.000e+00
    25.9887    0.00008     -0.135  25.611956  0.000e+00
    26.0201    0.00008     -0.135  25.612037  0.000e+00
    26.1377    0.00008     -0.137  25.612118  0.000e+00
    26.2520    0.00008     -0.137  25.612199  0.000e+00
    26.3044    0.00008     -0.139  25.612280  0.000e+00
    26.3799    0.00008     -0.137  25.612361  0.000e+00
    26.4744    0.00008     -0.137  25.612442  0.000e+00
    26.5192    0.00008     -0.139  25.612523  0.000e+00
    26.4225    0.00008     -0.139  25.612604  0.000e+00
    26.4119    0.00008     -0.139  25.612685  0.000e+00
    26.2464    0.00008     -0.139  25.612766  0.000e+00
    26.1236    0.00009     -0.139  25.612847  0.000e+00
    25.9973    0.00008     -0.137  25.612928  0.000e+00
    25.9400    0.00008     -0.139  25.613009  0.000e+00
    25.8688    0.00008     -0.139  25.613090  0.000e+00
    25.8428    0.00008     -0.139  25.613171  0.000e+00
    25.9620    0.00008     -0.139  25.613252  0.000e+00
    26.0283    0.00008     -0.139  25.613333  0.000e+00
    26.0948    0.00008     -0.137  25.613414  0.000e+00
    26.1760    0.00008     -0.137  25.613495  0.000e+00
    26.1402    0.00008     -0.137  25.613576  0.000e+00
    26.1783    0.00008     -0.137  25.613657  0.000e+00
    26.2742    0.00008     -0.137  25.613738  0.000e+00
    26.4428    0.00008     -0.137  25.613819  0.000e+00
    26.4542    0.00008     -0.137  25.613900  0.000e+00
    26.4579    0.00008     -0.137  25.613981  0.000e+00
    26.4138    0.00008     -0.137  25.614062  0.000e+00
    26.3655    0.00008     -0.137  25.614144  0.000e+00
    26.3294    0.00008     -0.137  25.614225  0.000e+00
    26.1028    0.00008     -0.137  25.614306  0.000e+00
    25.7623    0.43652     -0.107  25.614387  0.000e+00
    28.1923    0.98086     -0.078  25.614468  0.000e+00
    28.1878    0.98068     -0.056  25.614549  0.000e+00
    28.1633    0.99973      0.419  25.614630  0.000e+00
    28.1008    1.08517      0.780  25.614711  0.000e+00
    28.0066    1.16464      1.179  25.614792  0.000e+00
    28.2179    1.92767      1.593  25.614873  0.000e+00
    27.7641    3.30264      1.983  25.614954  0.000e+00
    25.9919    3.80104      2.710  25.615035  0.000e+00
    25.7469    4.42972      3.389  25.615116  0.000e+00
    25.7548    4.81447      4.138  25.615197  0.000e+00
    25.7502    5.06775      4.416  25.615278  0.000e+00
    25.7575    5.10459      4.546  25.615359  0.000e+00
    25.7604    5.11860      4.623  25.615440  0.000e+00
    25.7583    5.11145      4.760  25.615521  0.000e+00
    25.7496    5.11884      4.483  25.615602  0.000e+00
    25.7408    5.12209      4.206  25.615683  0.000e+00
    25.7424    5.12665      3.120  25.615764  0.000e+00
    27.5537    4.00279      1.843  25.615845  0.000e+00
    28.0642    2.23312      0.827  25.615926  0.000e+00
    28.1942    1.03317     -0.011  25.616007  0.000e+00
    26.8357    0.00007     -0.134  25.616088  0.000e+00
    26.5098    0.00007     -0.128  25.616169  0.000e+00
    26.4623    0.00007     -0.125  25.616250  0.000e+00
    26.4720    0.00007     -0.123  25.616331  0.000e+00
    26.4871    0.00007     -0.121  25.616412  0.000e+00
    26.4839    0.00007     -0.121  25.616493  0.000e+00
    26.5230    0.00007     -0.119  25.616574  0.000e+00
    26.5594    0.00007     -0.119  25.616655  0.000e+00
    26.6379    0.00007     -0.119  25.616736  0.000e+00
    26.6726    0.00007     -0.119  25.616817  0.000e+00
    26.7604    0.00007     -0.119  25.616898  0.000e+00
    26.8513    0.00007     -0.119  25.616979  0.000e+00
    26.8801    0.00007     -0.119  25.617060  0.000e+00
    26.9187    0.00007     -0.119  25.617141  0.000e+00
    26.9610    0.00007     -0.119  25.617222  0.000e+00
    26.9727    0.00007     -0.119  25.617303  0.000e+00
    26.9934    0.00007     -0.119  25.617384  0.000e+00
    26.9787    0.00007     -0.121  25.617465  0.000e+00
    26.9447    0.00007     -0.119  25.617546  0.000e+00
    26.8508    0.00007     -0.119  25.617627  0.000e+00
    26.7627    0.00007     -0.119  25.617708  0.000e+00
    26.7305    0.00007     -0.119  25.617789  0.000e+00
    26.7324    0.00007     -0.119  25.617870  0.000e+00
    26.6583    0.00007     -0.121  25.617951  0.000e+00
    26.6624    0.00007     -0.121  25.618032  0.000e+00
    26.6878    0.00007     -0.121  25.618113  0.000e+00
    26.6955    0.00007     -0.121  25.618194  0.000e+00
    26.7214    0.00007     -0.121  25.618275  0.000e+00
    26.7576    0.00007     -0.123  25.618356  0.000e+00
    26.7303    0.00007     -0.123  25.618437  0.000e+00
    26.7349    0.00007     -0.123  25.618519  0.000e+00
    26.7701    0.00007     -0.123  25.618600  0.000e+00
    26.8435    0.00007     -0.125  25.618681  0.000e+00
    26.7145    0.00007     -0.128  25.618762  0.000e+00
    26.6142    0.00007     -0.128  25.618843  0.000e+00
    28.2842    1.55542     -0.035  25.618924  0.000e+00
    28.3538    1.65810      0.043  25.619005  0.000e+00
    28.3566    1.81835      0.057  25.619086  0.000e+00
    28.3756    1.86800      0.347  25.619167  0.000e+00
    28.3459    2.68318      0.643  25.619248  0.000e+00
    28.2473    2.96311      1.125  25.619329  0.000e+00
    28.0183    3.15813      1.453  25.619410  0.000e+00
    26.7530    4.00194      2.240  25.619491  0.000e+00
    26.6667    4.10283      3.048  25.619572  0.000e+00
    26.4974    4.46472      3.841  25.619653  0.000e+00
    26.2843    4.70013      4.555  25.619734  0.000e+00
    26.1367    4.79334      5.499  25.619815  0.000e+00
    26.0396    4.86578      5.420  25.619896  0.000e+00
    26.2046    4.80362      4.220  25.619977  0.000e+00
    26.5705    4.58083      3.476  25.620058  0.000e+00
    26.7198    4.45583      2.310  25.620139  0.000e+00
    27.2989    4.25265      1.483  25.620220  0.000e+00
    27.8744    3.55310      0.467  25.620301  0.000e+00
    27.2931    0.00007     -0.130  25.620382  0.000e+00
    26.9228    0.00006     -0.130  25.620463  0.000e+00
    26.9040    0.00006     -0.128  25.620544  0.000e+00
    26.9112    0.00006     -0.128  25.620625  0.000e+00
    26.9552    0.00007     -0.128  25.620706  0.000e+00
    26.8360    0.00007     -0.130  25.620787  0.000e+00
    26.7418    0.00007     -0.130  25.620868  0.000e+00
    26.7219    0.00007     -0.130  25.620949  0.000e+00
    26.6904    0.00007     -0.130  25.621030  0.000e+00
    26.7128    0.00007     -0.132  25.621111  0.000e+00
    26.7778    0.00007     -0.132  25.621192  0.000e+00
    26.8741    0.00006     -0.132  25.621273  0.000e+00
    26.9629    0.00005     -0.134  25.621354  0.000e+00
    27.0264    0.00007     -0.134  25.621435  0.000e+00
    27.0068    0.00007     -0.134  25.621516  0.000e+00
    26.9914    0.00007     -0.134  25.621597  0.000e+00
    26.9810    0.00007     -0.135  25.621678  0.000e+00
    26.9540    0.00007     -0.135  25.621759  0.000e+00
    26.9275    0.00007     -0.135  25.621840  0.000e+00
    26.8924    0.00007     -0.135  25.621921  0.000e+00
    26.8933    0.00008     -0.135  25.622002  0.000e+00
    26.8915    0.00007     -0.137  25.622083  0.000e+00
    26.9087    0.00007     -0.137  25.622164  0.000e+00
    26.9064    0.00007     -0.137  25.622245  0.000e+00
    26.8604    0.00008     -0.137  25.622326  0.000e+00
    26.8618    0.00007     -0.137  25.622407  0.000e+00
    26.8535    0.00008     -0.137  25.622488  0.000e+00
    26.8343    0.00007     -0.137  25.622569  0.000e+00
    26.8599    0.00008     -0.137  25.622650  0.000e+00
    26.8559    0.00007     -0.137  25.622731  0.000e+00
    26.8885    0.00007     -0.137  25.622812  0.000e+00
    26.7736    0.00008     -0.135  25.622894  0.000e+00
    28.0078    0.45170     -0.096  25.622975  0.000e+00
    28.0221    1.18689      0.066  25.623056  0.000e+00
    28.0270    1.26461      0.145  25.623137  0.000e+00
    28.0298    1.27656      0.169  25.623218  0.000e+00
    28.0450    1.39951      0.607  25.623299  0.000e+00
    28.0353    1.52237      0.181  25.623380  0.000e+00
    28.0520    1.72928      0.507  25.623461  0.000e+00
    27.9081    0.29908     -0.134  25.623542  0.000e+00
    26.0096    0.00008     -0.135  25.623623  0.000e+00
    25.5996    0.00008     -0.135  25.623704  0.000e+00
    25.8418    0.00008     -0.137  25.623785  0.000e+00
    25.8651    0.00008     -0.137  25.623866  0.000e+00
    25.9776    0.00008     -0.137  25.623947  0.000e+00
    26.0674    0.00008     -0.139  25.624028  0.000e+00
    26.1766    0.00008     -0.139  25.624109  0.000e+00
    26.1762    0.00008     -0.139  25.624190  0.000e+00
    26.3211    0.00008     -0.139  25.624271  0.000e+00
    26.3564    0.00008     -0.141  25.624352  0.000e+00
    26.3823    0.00008     -0.141  25.624433  0.000e+00
    26.3734    0.00008     -0.141  25.624514  0.000e+00
    26.4316    0.00008     -0.141  25.624595  0.000e+00
    26.5312    0.00008     -0.141  25.624676  0.000e+00
    26.5974    0.00008     -0.141  25.624757  0.000e+00
    26.6865    0.00008     -0.141  25.624838  0.000e+00
    26.7530    0.00008     -0.141  25.624919  0.000e+00
    26.7682    0.00008     -0.141  25.625000  0.000e+00
    26.7503    0.00008     -0.141  25.625081  0.000e+00
    26.7443    0.00008     -0.141  25.625162  0.000e+00
    26.7637    0.00008     -0.141  25.625243  0.000e+00
    26.7979    0.00008     -0.141  25.625324  0.000e+00
    26.8096    0.00008     -0.141  25.625405  0.000e+00
    26.8566    0.00008     -0.141  25.625486  0.000e+00
    26.8877    0.00008     -0.141  25.625567  0.000e+00
    26.9086    0.00008     -0.141  25.625648  0.000e+00
    26.9106    0.00008     -0.141  25.625729  0.000e+00
    26.8760    0.00008     -0.141  25.625810  0.000e+00
    26.8818    0.00008     -0.141  25.625891  0.000e+00
    26.9061    0.00008     -0.141  25.625972  0.000e+00
    26.8812    0.00008     -0.141  25.626053  0.000e+00
    26.8517    0.00008     -0.141  25.626134  0.000e+00
    26.8338    0.00008     -0.141  25.626215  0.000e+00
    26.7835    0.00008     -0.141  25.626296  0.000e+00
    26.8239    0.00008     -0.141  25.626377  0.000e+00
    26.8911    0.00008     -0.141  25.626458  0.000e+00
    26.8905    0.00008     -0.143  25.626539  0.000e+00
    26.8608    0.00008     -0.141  25.626620  0.000e+00
    26.8583    0.00008     -0.141  25.626701  0.000e+00
    26.8826    0.00008     -0.141  25.626782  0.000e+00
    26.9314    0.00008     -0.141  25.626863  0.000e+00
    26.9423    0.00008     -0.141  25.626944  0.000e+00
    26.9287    0.00008     -0.141  25.627025  0.000e+00
    26.9734    0.00008     -0.141  25.627106  0.000e+00
    26.9417    0.00008     -0.141  25.627187  0.000e+00
    26.9060    0.00008     -0.141  25.627269  0.000e+00
    26.9666    0.00008     -0.141  25.627350  0.000e+00
    27.0136    0.00008     -0.141  25.627431  0.000e+00
    26.9922    0.00008     -0.141  25.627512  0.000e+00
    26.9430    0.00008     -0.141  25.627593  0.000e+00
    26.9483    0.00008     -0.141  25.627674  0.000e+00
    26.8502    0.00008     -0.141  25.627755  0.000e+00
    26.8849    0.00008     -0.141  25.627836  0.000e+00
    26.8692    0.00008     -0.141  25.627917  0.000e+00
    26.9309    0.00008     -0.141  25.627998  0.000e+00
    26.9413    0.00008     -0.141  25.628079  0.000e+00
    26.9864    0.00008     -0.141  25.628160  0.000e+00
    26.9764    0.00008     -0.141  25.628241  0.000e+00
    26.9304    0.00008     -0.141  25.628322  0.000e+00
    26.9251    0.00008     -0.141  25.628403  0.000e+00
    27.8777    1.83099     -0.015  25.628484  0.000e+00
    28.2389    1.86358      0.001  25.628565  0.000e+00
    28.2440    1.91756      0.007  25.628646  0.000e+00
    28.2234    1.97287     -0.063  25.628727  0.000e+00
    28.2260    1.91279      0.028  25.628808  0.000e+00
    28.2289    1.87057     -0.080  25.628889  0.000e+00
    28.2513    2.03671      0.411  25.628970  0.000e+00
    28.2276    1.74578     -0.096  25.629051  0.000e+00
    28.2199    1.74991      0.296  25.629132  0.000e+00
    28.2368    2.00096      0.039  25.629213  0.000e+00
    26.8589    0.02802     -0.137  25.629294  0.000e+00
    26.4727    0.00008     -0.139  25.629375  0.000e+00
    26.4706    0.00007     -0.139  25.629456  0.000e+00
    26.4440    0.00007     -0.139  25.629537  0.000e+00
    26.4804    0.00008     -0.139  25.629618  0.000e+00
    26.5622    0.00007     -0.141  25.629699  0.000e+00
    26.5391    0.00008     -0.141  25.629780  0.000e+00
    26.5330    0.00008     -0.141  25.629861  0.000e+00
    26.5082    0.00007     -0.141  25.629942  0.000e+00
    26.5651    0.00007     -0.141  25.630023  0.000e+00
    26.5849    0.00007     -0.141  25.630104  0.000e+00
    26.5327    0.00007     -0.141  25.630185  0.000e+00
    26.4736    0.00007     -0.141  25.630266  0.000e+00
    26.4048    0.00008     -0.141  25.630347  0.000e+00
    26.3214    0.00007     -0.141  25.630428  0.000e+00
    26.2010    0.00007     -0.141  25.630509  0.000e+00
    26.0550    0.00008     -0.141  25.630590  0.000e+00
    26.0665    0.00008     -0.141  25.630671  0.000e+00
    25.9876    0.00008     -0.141  25.630752  0.000e+00
    25.9507    0.00008     -0.141  25.630833  0.000e+00
    25.9847    0.00008     -0.143  25.630914  0.000e+00
    26.0137    0.00008     -0.143  25.630995  0.000e+00
    26.0431    0.00008     -0.143  25.631076  0.000e+00
    25.9730    0.00008     -0.143  25.631157  0.000e+00
    25.9107    0.00008     -0.143  25.631238  0.000e+00
    25.8925    0.00008     -0.143  25.631319  0.000e+00
    25.8876    0.00008     -0.143  25.631400  0.000e+00
    25.9584    0.00008     -0.143  25.631481  0.000e+00
    25.8755    0.00007     -0.144  25.631562  0.000e+00
    25.9073    0.00008     -0.144  25.631644  0.000e+00
    25.9179    0.00007     -0.144  25.631725  0.000e+00
    25.9380    0.00008     -0.144  25.631806  0.000e+00
    25.8510    0.00007     -0.144  25.631887  0.000e+00
    25.8647    0.00008     -0.144  25.631968  0.000e+00
    25.8940    0.00008     -0.144  25.632049  0.000e+00
    25.8762    0.00008     -0.144  25.632130  0.000e+00
    25.8946    0.00007     -0.144  25.632211  0.000e+00
    25.8766    0.00008     -0.143  25.632292  0.000e+00
    25.9232    0.00007     -0.144  25.632373  0.000e+00
    25.7984    0.00008     -0.144  25.632454  0.000e+00
    25.7223    0.00008     -0.143  25.632535  0.000e+00
    25.6841    0.00008     -0.143  25.632616  0.000e+00
    25.6432    0.00008     -0.143  25.632697  0.000e+00
    25.6749    0.00008     -0.143  25.632778  0.000e+00
    25.6840    0.00008     -0.143  25.632859  0.000e+00
    25.6873    0.00008     -0.143  25.632940  0.000e+00
    25.6848    0.00008     -0.143  25.633021  0.000e+00
    25.6693    0.00008     -0.143  25.633102  0.000e+00
    25.7231    0.00008     -0.141  25.633183  0.000e+00
    25.7156    0.00008     -0.141  25.633264  0.000e+00
    25.7618    0.00008     -0.141  25.633345  0.000e+00
    25.8113    0.00008     -0.143  25.633426  0.000e+00
    25.8447    0.00008     -0.143  25.633507  0.000e+00
    25.8067    0.00008     -0.143  25.633588  0.000e+00
    25.7882    0.00008     -0.141  25.633669  0.000e+00
    25.8324    0.00008     -0.141  25.633750  0.000e+00
    25.8818    0.00008     -0.141  25.633831  0.000e+00
    25.8995    0.00008     -0.141  25.633912  0.000e+00
    25.8811    0.00008     -0.141  25.633993  0.000e+00
    25.8293    0.00008     -0.141  25.634074  0.000e+00
    25.8693    0.00008     -0.141  25.634155  0.000e+00
    25.9106    0.00008     -0.143  25.634236  0.000e+00
    25.9277    0.00008     -0.141  25.634317  0.000e+00
    25.9771    0.00008     -0.143  25.634398  0.000e+00
    25.9883    0.00008     -0.141  25.634479  0.000e+00
    25.9898    0.00008     -0.141  25.634560  0.000e+00
    26.0117    0.00008     -0.141  25.634641  0.000e+00
    26.0547    0.00008     -0.141  25.634722  0.000e+00
    26.0418    0.00008     -0.143  25.634803  0.000e+00
    26.0846    0.00008     -0.143  25.634884  0.000e+00
    26.1686    0.00008     -0.141  25.634965  0.000e+00
    26.2524    0.00008     -0.143  25.635046  0.000e+00
    26.1495    0.00008     -0.143  25.635127  0.000e+00
    26.1803    0.00008     -0.143  25.635208  0.000e+00
    26.1945    0.00008     -0.143  25.635289  0.000e+00
    26.2007    0.00008     -0.143  25.635370  0.000e+00
    25.8988    0.00008     -0.143  25.635451  0.000e+00
    25.7799    0.00008     -0.143  25.635532  0.000e+00
    25.8662    0.00008     -0.146  25.635613  0.000e+00
    25.8983    0.00008     -0.146  25.635694  0.000e+00
    25.8989    0.00008     -0.146  25.635775  0.000e+00
    25.9314    0.00008     -0.148  25.635856  0.000e+00
    25.9221    0.00008     -0.148  25.635937  0.000e+00
    25.9371    0.00008     -0.148  25.636019  0.000e+00
    25.9231    0.00008     -0.148  25.636100  0.000e+00
    25.9132    0.00008     -0.148  25.636181  0.000e+00
    25.9146    0.00008     -0.148  25.636262  0.000e+00
    25.9358    0.00008     -0.148  25.636343  0.000e+00
    25.9745    0.00008     -0.148  25.636424  0.000e+00
    25.9848    0.00008     -0.148  25.636505  0.000e+00
    25.9764    0.00008     -0.148  25.636586  0.000e+00
    26.0128    0.00008     -0.148  25.636667  0.000e+00
    26.0351    0.00008     -0.148  25.636748  0.000e+00
    26.0697    0.00008     -0.148  25.636829  0.000e+00
    26.1013    0.00008     -0.148  25.636910  0.000e+00
    26.0904    0.00008     -0.148  25.636991  0.000e+00
    26.1305    0.00008     -0.148  25.637072  0.000e+00
    26.1409    0.00008     -0.148  25.637153  0.000e+00
    26.1538    0.00008     -0.148  25.637234  0.000e+00
    26.1595    0.00008     -0.148  25.637315  0.000e+00
    26.1799    0.00008     -0.150  25.637396  0.000e+00
    26.1640    0.00008     -0.148  25.637477  0.000e+00
    26.1434    0.00008     -0.150  25.637558  0.000e+00
    26.1473    0.00008     -0.148  25.637639  0.000e+00
    26.1456    0.00008     -0.148  25.637720  0.000e+00
    26.1483    0.00008     -0.148  25.637801  0.000e+00
    26.2188    0.00008     -0.155  25.650949  0.000e+00
    26.2016    0.00008     -0.152  25.651042  0.000e+00
    26.2741    0.00007     -0.157  25.652500  0.000e+00
    26.2210    0.00008     -0.153  25.652616  0.000e+00
    26.2202    0.00007     -0.153  25.652697  0.000e+00
    26.2256    0.00007     -0.153  25.652778  0.000e+00
    26.2638    0.00008     -0.153  25.652859  0.000e+00
    26.2948    0.00008     -0.153  25.652940  0.000e+00
    26.3201    0.00007     -0.153  25.653021  0.000e+00
    26.3552    0.00007     -0.153  25.653102  0.000e+00
    26.3559    0.00008     -0.153  25.653183  0.000e+00
    26.2902    0.00008     -0.153  25.653264  0.000e+00
    26.1533    0.00007     -0.153  25.653345  0.000e+00
    25.9869    0.00008     -0.153  25.653426  0.000e+00
    25.9836    0.00008     -0.153  25.653507  0.000e+00
    26.0552    0.00008     -0.153  25.653588  0.000e+00
    26.0678    0.00008     -0.153  25.653669  0.000e+00
    25.9669    0.00008     -0.148  25.653750  0.000e+00
    25.9280    0.00008     -0.148  25.653831  0.000e+00
    25.9680    0.00008     -0.148  25.653912  0.000e+00
    26.0184    0.00008     -0.148  25.653993  0.000e+00
    25.9832    0.00008     -0.148  25.654074  0.000e+00
    25.9504    0.00008     -0.148  25.654155  0.000e+00
    25.9662    0.00008     -0.148  25.654236  0.000e+00
    25.9664    0.00008     -0.148  25.654317  0.000e+00
    26.0401    0.00008     -0.148  25.654398  0.000e+00
    26.1133    0.00007     -0.148  25.654479  0.000e+00
    26.1244    0.00008     -0.148  25.654560  0.000e+00
    26.0236    0.00008     -0.146  25.654641  0.000e+00
    25.9617    0.00008     -0.146  25.654722  0.000e+00
    25.9062    0.00008     -0.146  25.654803  0.000e+00
    25.8571    0.00008     -0.146  25.654884  0.000e+00
    25.7681    0.00008     -0.146  25.654965  0.000e+00
    25.6911    0.00008     -0.146  25.655046  0.000e+00
    25.6572    0.00008     -0.146  25.655127  0.000e+00
    25.6193    0.00008     -0.144  25.655208  0.000e+00
    25.5828    0.00008     -0.146  25.655289  0.000e+00
    25.6373    0.00008     -0.146  25.655370  0.000e+00
    25.6354    0.00008     -0.146  25.655451  0.000e+00
    25.6017    0.00008     -0.146  25.655532  0.000e+00
    25.5236    0.00008     -0.146  25.655613  0.000e+00
    25.5159    0.00008     -0.146  25.655694  0.000e+00
    25.5604    0.00008     -0.144  25.655775  0.000e+00
    25.6386    0.00008     -0.146  25.655856  0.000e+00
    25.7094    0.00008     -0.146  25.655938  0.000e+00
    25.7216    0.00008     -0.146  25.656019  0.000e+00
    25.7478    0.00008     -0.146  25.656100  0.000e+00
    26.7330    1.52903     -0.069  25.656181  0.000e+00
    27.9691    1.77049     -0.060  25.656262  0.000e+00
    27.9622    1.72734     -0.069  25.656343  0.000e+00
    27.9688    1.73809     -0.020  25.656424  0.000e+00
    27.9963    1.75372     -0.062  25.656505  0.000e+00
    27.9870    1.74665     -0.072  25.656586  0.000e+00
    28.0114    1.74761      0.066  25.656667  0.000e+00
    28.1171    1.83628      0.530  25.656748  0.000e+00
    28.1453    2.11202      0.769  25.656829  0.000e+00
    28.1443    2.11789      0.999  25.656910  0.000e+00
    28.1518    2.12471      1.390  25.656991  0.000e+00
    28.1693    2.22199      1.276  25.657072  0.000e+00
    28.1630    2.35679      1.568  25.657153  0.000e+00
    27.6885    3.18162      2.028  25.657234  0.000e+00
    27.1872    3.74385      2.510  25.657315  0.000e+00
    27.1311    3.74410      3.001  25.657396  0.000e+00
    27.0573    3.92968      3.447  25.657477  0.000e+00
    26.8600    4.06684      3.769  25.657558  0.000e+00
    26.8061    4.26344      4.163  25.657639  0.000e+00
    26.4850    4.57515      4.589  25.657720  0.000e+00
    26.2395    4.75507      5.049  25.657801  0.000e+00
    26.1205    4.84177      5.927  25.657882  0.000e+00
    26.1052    4.85439      6.024  25.657963  0.000e+00
    26.1168    4.87705      6.103  25.658044  0.000e+00
    26.1690    4.86739      5.391  25.658125  0.000e+00
    26.2337    4.82227      4.828  25.658206  0.000e+00
    26.2338    4.81354      4.585  25.658287  0.000e+00
    26.5114    4.70693      4.039  25.658368  0.000e+00
    26.6917    4.57289      3.573  25.658449  0.000e+00
    26.9539    4.40792      2.879  25.658530  0.000e+00
    27.3926    4.22493      2.332  25.658611  0.000e+00
    27.6331    3.81554      1.789  25.658692  0.000e+00
    28.0814    3.54943      1.168  25.658773  0.000e+00
    28.0959    2.56805      0.514  25.658854  0.000e+00
    28.0815    2.45329      0.253  25.658935  0.000e+00
    28.0631    2.06417     -0.026  25.659016  0.000e+00
    27.1473    0.03249     -0.128  25.659097  0.000e+00
    26.7598    0.00007     -0.126  25.659178  0.000e+00
    26.6324    0.00006     -0.128  25.659259  0.000e+00
    26.5765    0.00007     -0.128  25.659340  0.000e+00
    26.5234    0.00006     -0.130  25.659421  0.000e+00
    26.4264    0.00006     -0.130  25.659502  0.000e+00
    26.2973    0.00007     -0.134  25.659583  0.000e+00
    26.1973    0.00006     -0.134  25.659664  0.000e+00
    26.1178    0.00006     -0.134  25.659745  0.000e+00
    26.0641    0.00007     -0.135  25.659826  0.000e+00
    26.0406    0.00007     -0.135  25.659907  0.000e+00
    25.9899    0.00007     -0.135  25.659988  0.000e+00
    25.9733    0.00007     -0.135  25.660069  0.000e+00
    25.8719    0.00007     -0.137  25.660150  0.000e+00
    25.7867    0.00007     -0.137  25.660231  0.000e+00
    25.7026    0.00007     -0.137  25.660313  0.000e+00
    25.6212    0.00007     -0.139  25.660394  0.000e+00
    25.5856    0.00007     -0.137  25.660475  0.000e+00
    25.5775    0.00007     -0.139  25.660556  0.000e+00
    25.5706    0.00006     -0.139  25.660637  0.000e+00
    25.5381    0.00007     -0.139  25.660718  0.000e+00
    25.5575    0.00007     -0.139  25.660799  0.000e+00
    25.5226    0.00007     -0.141  25.660880  0.000e+00
    25.5193    0.00007     -0.141  25.660961  0.000e+00
    25.5608    0.00007     -0.139  25.661042  0.000e+00
    25.6445    0.00007     -0.141  25.661123  0.000e+00
    25.7698    0.00006     -0.141  25.661204  0.000e+00
    25.8431    0.00007     -0.141  25.661285  0.000e+00
    25.8318    0.00006     -0.139  25.661366  0.000e+00
    25.7724    0.00006     -0.139  25.661447  0.000e+00
    25.7429    0.00007     -0.141  25.661528  0.000e+00
    25.6978    0.00007     -0.135  25.661609  0.000e+00
    25.6217    0.00007     -0.137  25.661690  0.000e+00
    25.7197    0.00007     -0.137  25.661771  0.000e+00
    25.7994    0.00007     -0.137  25.661852  0.000e+00
    25.7050    0.00006     -0.135  25.661933  0.000e+00
    25.6813    0.00007     -0.134  25.662014  0.000e+00
    25.7478    0.00007     -0.134  25.662095  0.000e+00
    25.7143    0.00007     -0.135  25.662176  0.000e+00
    25.5927    0.00007     -0.135  25.662257  0.000e+00
    25.5992    0.00007     -0.135  25.662338  0.000e+00
    25.6920    0.00007     -0.137  25.662419  0.000e+00
    25.6901    0.00007     -0.137  25.662500  0.000e+00
    25.5936    0.00007     -0.137  25.662581  0.000e+00
    25.6140    0.00007     -0.139  25.662662  0.000e+00
    25.5927    0.00007     -0.139  25.662743  0.000e+00
    25.7067    0.00007     -0.139  25.662824  0.000e+00
    25.8500    0.00006     -0.137  25.662905  0.000e+00
    26.9961    1.99693      0.030  25.662986  0.000e+00
    28.5563    2.40327      0.008  25.663067  0.000e+00
    28.7755    2.70739     -0.006  25.663148  0.000e+00
    28.4426    2.75575      0.142  25.663229  0.000e+00
    28.7748    2.74811     -0.038  25.663310  0.000e+00
    28.3935    2.87350      0.428  25.663391  0.000e+00
    28.3972    2.96539      0.823  25.663472  0.000e+00
    28.3998    2.96308      1.066  25.663553  0.000e+00
    28.4006    3.00145      1.073  25.663634  0.000e+00
    28.4004    3.00656      0.917  25.663715  0.000e+00
    28.3988    3.01146      0.985  25.663796  0.000e+00
    28.3952    3.01344      0.393  25.663877  0.000e+00
    28.3891    3.00125      0.143  25.663958  0.000e+00
    28.5179    0.17839     -0.135  25.664039  0.000e+00
    27.5515    0.00006     -0.139  25.664120  0.000e+00
    27.1866    0.00006     -0.139  25.664201  0.000e+00
    26.9985    0.00007     -0.139  25.664282  0.000e+00
    26.8576    0.00007     -0.139  25.664363  0.000e+00
    26.8142    0.00007     -0.141  25.664444  0.000e+00
    26.7200    0.00007     -0.141  25.664525  0.000e+00
    26.6757    0.00007     -0.143  25.664606  0.000e+00
    26.5404    0.00007     -0.143  25.664687  0.000e+00
    26.3999    0.00007     -0.143  25.664769  0.000e+00
    26.3798    0.00007     -0.143  25.664850  0.000e+00
    26.3779    0.00007     -0.143  25.664931  0.000e+00
    26.3738    0.00007     -0.143  25.665012  0.000e+00
    26.3711    0.00007     -0.143  25.665093  0.000e+00
    26.1090    0.00007     -0.143  25.665174  0.000e+00
    25.9873    0.00007     -0.144  25.665255  0.000e+00
    25.9032    0.00008     -0.144  25.665336  0.000e+00
    25.7849    0.00008     -0.144  25.665417  0.000e+00
    25.7056    0.00007     -0.146  25.665498  0.000e+00
    25.8082    0.00007     -0.150  25.665579  0.000e+00
    25.6964    0.00007     -0.150  25.665660  0.000e+00
    25.6812    0.00007     -0.150  25.665741  0.000e+00
    25.5393    0.00008     -0.150  25.665822  0.000e+00
    25.4503    0.00007     -0.150  25.665903  0.000e+00
    25.3917    0.00007     -0.152  25.665984  0.000e+00
    25.4048    0.00007     -0.152  25.666065  0.000e+00
    25.3667    0.00007     -0.152  25.666146  0.000e+00
    25.3215    0.00008     -0.146  25.666227  0.000e+00
    25.4225    0.00008     -0.146  25.666308  0.000e+00
    25.4286    0.00007     -0.146  25.666389  0.000e+00
    25.4146    0.00007     -0.144  25.666470  0.000e+00
    25.3774    0.00007     -0.144  25.666551  0.000e+00
    25.4291    0.00007     -0.144  25.666632  0.000e+00
    25.4168    0.00007     -0.144  25.666713  0.000e+00
    25.4482    0.00007     -0.146  25.666794  0.000e+00
    25.3799    0.00007     -0.146  25.666875  0.000e+00
    25.3676    0.00007     -0.146  25.666956  0.000e+00
    25.4149    0.00007     -0.146  25.667037  0.000e+00
    25.5005    0.00007     -0.146  25.667118  0.000e+00
    25.2411    0.00006     -0.146  25.667199  0.000e+00
    25.2581    0.00006     -0.144  25.667280  0.000e+00
    25.3703    0.00006     -0.144  25.667361  0.000e+00
    25.4081    0.00006     -0.144  25.667442  0.000e+00
    24.9858    0.00006     -0.143  25.667523  0.000e+00
    24.9775    0.00006     -0.143  25.667604  0.000e+00
    25.1004    0.00008     -0.137  25.667685  0.000e+00
    25.1725    0.00007     -0.137  25.667766  0.000e+00
    25.3050    0.00007     -0.139  25.667847  0.000e+00
    25.4365    0.00007     -0.141  25.667928  0.000e+00
    25.5570    0.00007     -0.143  25.668009  0.000e+00
    25.7319    0.00007     -0.139  25.668090  0.000e+00
    25.7450    0.00007     -0.141  25.668171  0.000e+00
    25.6255    0.00007     -0.141  25.668252  0.000e+00
    25.4268    0.00007     -0.141  25.668333  0.000e+00
    25.2122    0.00007     -0.143  25.668414  0.000e+00
    25.1749    0.00007     -0.143  25.668495  0.000e+00
    25.3275    0.00007     -0.144  25.668576  0.000e+00
    25.4921    0.00007     -0.144  25.668657  0.000e+00
    25.5295    0.00007     -0.144  25.668738  0.000e+00
    25.5840    0.00007     -0.146  25.668819  0.000e+00
    25.6212    0.00007     -0.144  25.668900  0.000e+00
    25.6032    0.00007     -0.144  25.668981  0.000e+00
    25.6418    0.00007     -0.144  25.669062  0.000e+00
    25.5786    0.00007     -0.144  25.669144  0.000e+00
    25.5172    0.00007     -0.144  25.669225  0.000e+00
    25.5550    0.00007     -0.144  25.669306  0.000e+00
    25.5781    0.00007     -0.146  25.669387  0.000e+00
    25.6639    0.00007     -0.146  25.669468  0.000e+00
    25.6918    0.00007     -0.146  25.669549  0.000e+00
    25.7461    0.00007     -0.146  25.669630  0.000e+00
    25.7574    0.00007     -0.146  25.669711  0.000e+00
    25.7776    0.00007     -0.146  25.669792  0.000e+00
    25.6310    0.00007     -0.146  25.669873  0.000e+00
    25.4065    0.00007     -0.146  25.669954  0.000e+00
    25.3508    0.00007     -0.146  25.670035  0.000e+00
    25.1274    0.00007     -0.146  25.670116  0.000e+00
    25.0410    0.00008     -0.144  25.670197  0.000e+00
    25.3545    0.00007     -0.148  25.670278  0.000e+00
    29.2442    2.70115     -0.058  25.670359  0.000e+00
    29.3322    2.68777     -0.042  25.670440  0.000e+00
    29.3559    2.70266     -0.035  25.670521  0.000e+00
    29.3673    2.72860      0.208  25.670602  0.000e+00
    29.3746    2.71949      0.410  25.670683  0.000e+00
    29.4258    2.72731      0.798  25.670764  0.000e+00
    29.4828    2.72834      0.920  25.670845  0.000e+00
    29.5094    2.75423      0.969  25.670926  0.000e+00
    29.4797    2.78512      0.739  25.671007  0.000e+00
    29.4814    2.80035      0.620  25.671088  0.000e+00
    29.4384    2.80277      0.399  25.671169  0.000e+00
    29.4081    2.80109      0.215  25.671250  0.000e+00
    29.4129    2.78962      0.044  25.671331  0.000e+00
    27.6029    0.05223     -0.148  25.671412  0.000e+00
    26.7291    0.00006     -0.155  25.671493  0.000e+00
    26.5372    0.00006     -0.157  25.671574  0.000e+00
    26.6013    0.00006     -0.157  25.671655  0.000e+00
    26.5788    0.00006     -0.157  25.671736  0.000e+00
    26.4444    0.00006     -0.157  25.671817  0.000e+00
    26.3126    0.00006     -0.157  25.671898  0.000e+00
    26.3525    0.00006     -0.157  25.671979  0.000e+00
    26.3709    0.00006     -0.157  25.672060  0.000e+00
    26.3040    0.00006     -0.157  25.672141  0.000e+00
    26.1517    0.00006     -0.157  25.672222  0.000e+00
    26.2120    0.00006     -0.157  25.672303  0.000e+00
    26.1591    0.00006     -0.157  25.672384  0.000e+00
    26.0086    0.00006     -0.157  25.672465  0.000e+00
    25.9181    0.00006     -0.157  25.672546  0.000e+00
    25.9424    0.00006     -0.157  25.672627  0.000e+00
    25.9865    0.00006     -0.157  25.672708  0.000e+00
    25.9616    0.00006     -0.157  25.672789  0.000e+00
    26.1039    0.00006     -0.159  25.672870  0.000e+00
    26.0608    0.00006     -0.159  25.672951  0.000e+00
    25.8937    0.00006     -0.159  25.673032  0.000e+00
    25.7508    0.00007     -0.159  25.673113  0.000e+00
    25.8943    0.00007     -0.159  25.673194  0.000e+00
    25.9591    0.00007     -0.159  25.673275  0.000e+00
    26.0925    0.00006     -0.159  25.673356  0.000e+00
    26.1265    0.00007     -0.159  25.673437  0.000e+00
    26.1754    0.00006     -0.159  25.673519  0.000e+00
    26.1946    0.00006     -0.157  25.673600  0.000e+00
    26.2417    0.00006     -0.159  25.673681  0.000e+00
    26.2462    0.00006     -0.157  25.673762  0.000e+00
    26.2468    0.00006     -0.157  25.673843  0.000e+00
    26.2156    0.00006     -0.157  25.673924  0.000e+00
    26.2191    0.00006     -0.157  25.674005  0.000e+00
    26.2598    0.00006     -0.157  25.674086  0.000e+00
    26.2200    0.00007     -0.157  25.674167  0.000e+00
    26.3343    0.00006     -0.157  25.674248  0.000e+00
    26.3123    0.00007     -0.157  25.674329  0.000e+00
    26.3104    0.00006     -0.157  25.674410  0.000e+00
    26.2608    0.00006     -0.155  25.674491  0.000e+00
    26.2365    0.00006     -0.153  25.674572  0.000e+00
    26.2056    0.00006     -0.153  25.674653  0.000e+00
    26.2097    0.00007     -0.152  25.674734  0.000e+00
    26.1581    0.00006     -0.152  25.674815  0.000e+00
    26.2075    0.00006     -0.152  25.674896  0.000e+00
    26.1389    0.00007     -0.152  25.674977  0.000e+00
    26.1254    0.00007     -0.150  25.675058  0.000e+00
    26.1594    0.00006     -0.148  25.675139  0.000e+00
    26.1776    0.00006     -0.148  25.675220  0.000e+00
    26.1199    0.00006     -0.148  25.675301  0.000e+00
    26.0764    0.00006     -0.146  25.675382  0.000e+00
    26.1148    0.00007     -0.146  25.675463  0.000e+00
    26.1253    0.00006     -0.146  25.675544  0.000e+00
    25.9955    0.00006     -0.144  25.675625  0.000e+00
    25.9727    0.00006     -0.144  25.675706  0.000e+00
    26.0226    0.00006     -0.144  25.675787  0.000e+00
    25.9883    0.00007     -0.144  25.675868  0.000e+00
    26.0203    0.00007     -0.144  25.675949  0.000e+00
    26.0248    0.00006     -0.144  25.676030  0.000e+00
    26.0559    0.00006     -0.144  25.676111  0.000e+00
    26.0193    0.00007     -0.144  25.676192  0.000e+00
    26.0190    0.00006     -0.144  25.676273  0.000e+00
    25.7649    0.00007     -0.143  25.676354  0.000e+00
    25.6990    0.00007     -0.144  25.676435  0.000e+00
    25.7033    0.00007     -0.146  25.676516  0.000e+00
    25.6885    0.00006     -0.146  25.676597  0.000e+00
    25.5012    0.00007     -0.144  25.676678  0.000e+00
    25.3572    0.00007     -0.146  25.676759  0.000e+00
    25.3958    0.00007     -0.150  25.676840  0.000e+00
    25.6258    0.00007     -0.157  25.676921  0.000e+00
    25.9546    0.00006     -0.168  25.677002  0.000e+00
    26.2891    0.00006     -0.173  25.677083  0.000e+00
    26.1300    0.00006     -0.168  25.677164  0.000e+00
    26.0271    0.00006     -0.161  25.677245  0.000e+00
    25.8269    0.00006     -0.161  25.677326  0.000e+00
    25.7080    0.00006     -0.161  25.677407  0.000e+00
    25.7062    0.00007     -0.159  25.677488  0.000e+00
    25.9293    0.00006     -0.155  25.677569  0.000e+00
    26.3211    0.00006     -0.155  25.677650  0.000e+00
    26.4421    0.00006     -0.157  25.677731  0.000e+00
    26.0371    0.00006     -0.150  25.677812  0.000e+00
    26.0516    0.00008     -0.148  25.677894  0.000e+00
    26.0598    0.00006     -0.148  25.677975  0.000e+00
    25.9277    0.00007     -0.153  25.678056  0.000e+00
    25.8103    0.00007     -0.157  25.678137  0.000e+00
    25.6432    0.00008     -0.155  25.678218  0.000e+00
    25.6338    0.01190     -0.159  25.678299  0.000e+00
    25.4426    0.00008     -0.161  25.678380  0.000e+00
    25.3787    0.00007     -0.153  25.678461  0.000e+00
    25.3037    0.00007     -0.153  25.678542  0.000e+00
    25.4400    0.00007     -0.155  25.678623  0.000e+00
    25.3249    0.00007     -0.155  25.678704  0.000e+00
    24.9112    0.00007     -0.152  25.678785  0.000e+00
    25.4745    0.00008     -0.155  25.678866  0.000e+00
    25.0191    0.00007     -0.153  25.678947  0.000e+00
    25.0469    0.00008     -0.153  25.679028  0.000e+00
    25.0183    0.00008     -0.153  25.679109  0.000e+00
    24.8872    0.00008     -0.150  25.679190  0.000e+00
    24.9107    0.00008     -0.152  25.679271  0.000e+00
    24.9196    0.00008     -0.153  25.679352  0.000e+00
    24.8922    0.00008     -0.153  25.679433  0.000e+00
    24.6590    0.00008     -0.153  25.679514  0.000e+00
    24.6570    0.00008     -0.153  25.679595  0.000e+00
    24.8792    0.00008     -0.155  25.679676  0.000e+00
    24.7258    0.00008     -0.155  25.679757  0.000e+00
    24.5385    0.00008     -0.157  25.679838  0.000e+00
    24.6386    0.00008     -0.159  25.679919  0.000e+00
    24.5075    0.00008     -0.159  25.680000  0.000e+00
    24.4392    0.00008     -0.157  25.680081  0.000e+00
    24.4271    0.00008     -0.161  25.680162  0.000e+00
    24.5543    0.00007     -0.159  25.680243  0.000e+00
    24.4745    0.00007     -0.159  25.680324  0.000e+00
    24.4740    0.00007     -0.155  25.680405  0.000e+00
    24.4086    0.00007     -0.162  25.680486  0.000e+00
    24.4476    0.00007     -0.162  25.680567  0.000e+00
    24.2683    0.00007     -0.164  25.680648  0.000e+00
    24.2264    0.00008     -0.162  25.680729  0.000e+00
    24.1927    0.00008     -0.161  25.680810  0.000e+00
    24.0814    0.00008     -0.150  25.680891  0.000e+00
    24.1898    0.00008     -0.144  25.680972  0.000e+00
    24.2080    0.00008     -0.143  25.681053  0.000e+00
    24.2821    0.00008     -0.130  25.681134  0.000e+00
    24.3989    0.00008     -0.130  25.681215  0.000e+00
    24.5487    0.00007     -0.135  25.681296  0.000e+00
    24.4221    0.00007     -0.134  25.681377  0.000e+00
    24.3388    0.00008     -0.135  25.681458  0.000e+00
    24.2872    0.00008     -0.132  25.681539  0.000e+00
    24.2839    0.00007     -0.130  25.681620  0.000e+00
    24.3490    0.00008     -0.128  25.681701  0.000e+00
    24.3905    0.00007     -0.126  25.681782  0.000e+00
    24.3225    0.00008     -0.128  25.681863  0.000e+00
    24.3035    0.00007     -0.132  25.681944  0.000e+00
    24.2053    0.00008     -0.125  25.682025  0.000e+00
    24.1794    0.00008     -0.135  25.682106  0.000e+00
    23.8704    0.00008     -0.132  25.682187  0.000e+00
    23.9712    0.00008     -0.132  25.682269  0.000e+00
    23.9257    0.00008     -0.135  25.682350  0.000e+00
    23.8953    0.00008     -0.139  25.682431  0.000e+00
    23.8330    0.00008     -0.137  25.682512  0.000e+00
    23.6906    0.00008     -0.141  25.682593  0.000e+00
    23.5438    0.00007     -0.137  25.682674  0.000e+00
    23.3766    0.00008     -0.144  25.682755  0.000e+00
    23.6472    0.00007     -0.139  25.682836  0.000e+00
    23.8314    0.00007     -0.137  25.682917  0.000e+00
    23.8801    0.00008     -0.139  25.682998  0.000e+00
    23.8298    0.00008     -0.144  25.683079  0.000e+00
    23.7040    0.00008     -0.141  25.683160  0.000e+00
    23.6298    0.00008     -0.141  25.683241  0.000e+00
    23.5489    0.00008     -0.143  25.683322  0.000e+00
    23.5663    0.00008     -0.141  25.683403  0.000e+00
    23.6854    0.00007     -0.141  25.683484  0.000e+00
    23.6677    0.00008     -0.144  25.683565  0.000e+00
    23.6249    0.00008     -0.141  25.683646  0.000e+00
    23.4945    0.00008     -0.144  25.683727  0.000e+00
    23.3228    0.00008     -0.146  25.683808  0.000e+00
    23.2890    0.00008     -0.143  25.683889  0.000e+00
    23.3325    0.00008     -0.143  25.683970  0.000e+00
    23.2849    0.00007     -0.144  25.684051  0.000e+00
    23.0264    0.00008     -0.146  25.684132  0.000e+00
    22.8169    0.00008     -0.146  25.684213  0.000e+00
    22.7867    0.00008     -0.146  25.684294  0.000e+00
    22.8878    0.00008     -0.146  25.684375  0.000e+00
    22.7766    0.00008     -0.146  25.684456  0.000e+00
    22.7000    0.00008     -0.144  25.684537  0.000e+00
    22.5989    0.00008     -0.144  25.684618  0.000e+00
    22.8185    0.00008     -0.146  25.684699  0.000e+00
    22.7820    0.00008     -0.146  25.684780  0.000e+00
    22.7018    0.00008     -0.146  25.684861  0.000e+00
    22.7328    0.00008     -0.146  25.684942  0.000e+00
    22.6084    0.00008     -0.144  25.685023  0.000e+00
    22.6225    0.00008     -0.146  25.685104  0.000e+00
    22.5813    0.00008     -0.148  25.685185  0.000e+00
    22.4999    0.00008     -0.144  25.685266  0.000e+00
    22.3862    0.00008     -0.144  25.685347  0.000e+00
    22.4016    0.00008     -0.143  25.685428  0.000e+00
    22.2603    0.00008     -0.143  25.685509  0.000e+00
    22.2791    0.00008     -0.146  25.685590  0.000e+00
    22.3208    0.00008     -0.144  25.685671  0.000e+00
    22.1516    0.00008     -0.146  25.685752  0.000e+00
    22.3608    0.00008     -0.146  25.685833  0.000e+00
    22.3663    0.00008     -0.146  25.685914  0.000e+00
    22.4365    0.00008     -0.146  25.685995  0.000e+00
    22.2226    0.00008     -0.146  25.686076  0.000e+00
    22.3212    0.00008     -0.146  25.686157  0.000e+00
    22.4364    0.00008     -0.144  25.686238  0.000e+00
    22.4633    0.00008     -0.144  25.686319  0.000e+00
    22.4986    0.00008     -0.146  25.686400  0.000e+00
    22.4278    0.00007     -0.144  25.686481  0.000e+00
    22.3635    0.00008     -0.144  25.686562  0.000e+00
    22.3523    0.00008     -0.144  25.686644  0.000e+00
    22.4668    0.00008     -0.146  25.686725  0.000e+00
    22.6165    0.00007     -0.146  25.686806  0.000e+00
    22.7077    0.00008     -0.146  25.686887  0.000e+00
    22.8580    0.00007     -0.146  25.686968  0.000e+00
    22.9243    0.00007     -0.146  25.687049  0.000e+00
    22.9995    0.00007     -0.146  25.687130  0.000e+00
    23.0789    0.00007     -0.143  25.687211  0.000e+00
    23.2111    0.00007     -0.144  25.687292  0.000e+00
    23.2633    0.00007     -0.144  25.687373  0.000e+00
    23.2599    0.00007     -0.146  25.687454  0.000e+00
    23.2026    0.00007     -0.144  25.687535  0.000e+00
    23.1873    0.00008     -0.144  25.687616  0.000e+00
    23.1697    0.00007     -0.144  25.687697  0.000e+00
    23.1804    0.00007     -0.143  25.687778  0.000e+00
    23.1191    0.00007     -0.143  25.687859  0.000e+00
    23.1021    0.00007     -0.144  25.687940  0.000e+00
    23.0811    0.00007     -0.144  25.688021  0.000e+00
    23.0074    0.00007     -0.144  25.688102  0.000e+00
    23.0319    0.00007     -0.146  25.688183  0.000e+00
    23.0741    0.00007     -0.146  25.688264  0.000e+00
    23.0979    0.00007     -0.148  25.688345  0.000e+00
    23.1098    0.00007     -0.148  25.688426  0.000e+00
    23.0632    0.00007     -0.148  25.688507  0.000e+00
    23.0673    0.00007     -0.148  25.688588  0.000e+00
    23.0346    0.00007     -0.148  25.688669  0.000e+00
    23.0310    0.00007     -0.148  25.688750  0.000e+00
    23.0390    0.00007     -0.148  25.688831  0.000e+00
    23.0573    0.00007     -0.148  25.688912  0.000e+00
    23.0770    0.00007     -0.143  25.688993  0.000e+00
    23.0280    0.00007     -0.148  25.689074  0.000e+00
    23.0326    0.00007     -0.150  25.689155  0.000e+00
    22.9944    0.00007     -0.155  25.689236  0.000e+00
    22.9669    0.00007     -0.155  25.689317  0.000e+00
    22.9486    0.00007     -0.153  25.689398  0.000e+00
    23.0079    0.00007     -0.153  25.689479  0.000e+00
    22.9589    0.00007     -0.155  25.689560  0.000e+00
    22.8642    0.00007     -0.153  25.689641  0.000e+00
    22.8392    0.00007     -0.153  25.689722  0.000e+00
    22.8072    0.00007     -0.155  25.689803  0.000e+00
    22.8152    0.00007     -0.153  25.689884  0.000e+00
    22.8230    0.00007     -0.153  25.689965  0.000e+00
    22.8596    0.00007     -0.155  25.690046  0.000e+00
    22.8795    0.00007     -0.153  25.690127  0.000e+00
    22.8945    0.00007     -0.155  25.690208  0.000e+00
    22.8850    0.00007     -0.153  25.690289  0.000e+00
    22.8362    0.00007     -0.153  25.690370  0.000e+00
    22.8328    0.00007     -0.155  25.690451  0.000e+00
    22.8721    0.00007     -0.155  25.690532  0.000e+00
    22.9338    0.00007     -0.155  25.690613  0.000e+00
    23.0151    0.00007     -0.155  25.690694  0.000e+00
    22.9764    0.00007     -0.155  25.690775  0.000e+00
    22.9235    0.00007     -0.155  25.690856  0.000e+00
    22.9495    0.00007     -0.155  25.690938  0.000e+00
    22.8846    0.00007     -0.155  25.691019  0.000e+00
    22.8237    0.00007     -0.155  25.691100  0.000e+00
    22.8940    0.00007     -0.157  25.691181  0.000e+00
    22.9166    0.00007     -0.157  25.691262  0.000e+00
    22.9959    0.00007     -0.155  25.691343  0.000e+00
    23.0589    0.00007     -0.157  25.691424  0.000e+00
    23.1215    0.00007     -0.157  25.691505  0.000e+00
    23.1680    0.00007     -0.157  25.691586  0.000e+00
    23.2803    0.00007     -0.157  25.691667  0.000e+00
    23.3687    0.00007     -0.157  25.691748  0.000e+00
    23.3749    0.00007     -0.157  25.691829  0.000e+00
    23.3846    0.00007     -0.157  25.691910  0.000e+00
    23.3241    0.00007     -0.159  25.691991  0.000e+00
    23.2309    0.00007     -0.157  25.692072  0.000e+00
    23.1812    0.00007     -0.157  25.692153  0.000e+00
    23.1844    0.00007     -0.159  25.692234  0.000e+00
    23.2967    0.00007     -0.159  25.692315  0.000e+00
    23.2310    0.00007     -0.159  25.692396  0.000e+00
    23.2962    0.00007     -0.157  25.692477  0.000e+00
    23.3641    0.00007     -0.159  25.692558  0.000e+00
    23.3743    0.00007     -0.159  25.692639  0.000e+00
    23.2862    0.00007     -0.159  25.692720  0.000e+00
    23.2535    0.00007     -0.159  25.692801  0.000e+00
    23.3040    0.00007     -0.159  25.692882  0.000e+00
    23.2549    0.00007     -0.159  25.692963  0.000e+00
    23.2796    0.00007     -0.159  25.693044  0.000e+00
    23.3744    0.00007     -0.159  25.693125  0.000e+00
    23.4423    0.00007     -0.159  25.693206  0.000e+00
    23.3900    0.00007     -0.159  25.693287  0.000e+00
    23.3914    0.00007     -0.159  25.693368  0.000e+00
    23.3836    0.00007     -0.159  25.693449  0.000e+00
    23.3405    0.00007     -0.159  25.693530  0.000e+00
    23.3414    0.00007     -0.159  25.693611  0.000e+00
    23.4159    0.00007     -0.159  25.693692  0.000e+00
    23.4749    0.00007     -0.159  25.693773  0.000e+00
    23.5055    0.00007     -0.159  25.693854  0.000e+00
    23.5550    0.00007     -0.159  25.693935  0.000e+00
    23.5692    0.00007     -0.159  25.694016  0.000e+00
    23.5139    0.00007     -0.159  25.694097  0.000e+00
    23.4951    0.00007     -0.159  25.694178  0.000e+00
    23.5024    0.00007     -0.159  25.694259  0.000e+00
    23.4099    0.00007     -0.159  25.694340  0.000e+00
    23.3968    0.00007     -0.159  25.694421  0.000e+00
    23.4496    0.00007     -0.159  25.694502  0.000e+00
    23.4786    0.00007     -0.159  25.694583  0.000e+00
    23.4993    0.00007     -0.159  25.694664  0.000e+00
    23.5441    0.00007     -0.159  25.694745  0.000e+00
    23.6382    0.00007     -0.161  25.694826  0.000e+00
    23.7571    0.00007     -0.159  25.694907  0.000e+00
    23.8113    0.00006     -0.159  25.694988  0.000e+00
    23.8501    0.00007     -0.159  25.695069  0.000e+00
    23.9103    0.00006     -0.159  25.695150  0.000e+00
    23.9794    0.00006     -0.161  25.695231  0.000e+00
    24.0231    0.00006     -0.161  25.695313  0.000e+00
    23.9386    0.00006     -0.159  25.695394  0.000e+00
    23.8759    0.00006     -0.159  25.695475  0.000e+00
    23.8553    0.00007     -0.159  25.695556  0.000e+00
    23.8156    0.00006     -0.159  25.695637  0.000e+00
    23.8489    0.00006     -0.159  25.695718  0.000e+00
    23.8071    0.00006     -0.159  25.695799  0.000e+00
    23.8286    0.00007     -0.159  25.695880  0.000e+00
    23.8033    0.00007     -0.159  25.695961  0.000e+00
    23.7256    0.00007     -0.159  25.696042  0.000e+00
    23.7315    0.00007     -0.159  25.696123  0.000e+00
    23.7620    0.00006     -0.159  25.696204  0.000e+00
    23.8598    0.00007     -0.159  25.696285  0.000e+00
    23.8659    0.00006     -0.159  25.696366  0.000e+00
    23.9406    0.00006     -0.159  25.696447  0.000e+00
    23.9810    0.00006     -0.159  25.696528  0.000e+00
    24.0019    0.00006     -0.159  25.696609  0.000e+00
    24.0429    0.00007     -0.159  25.696690  0.000e+00
    24.0780    0.00006     -0.159  25.696771  0.000e+00
    24.0974    0.00006     -0.159  25.696852  0.000e+00
    24.1442    0.00006     -0.159  25.696933  0.000e+00
    24.1735    0.00006     -0.159  25.697014  0.000e+00
    24.1536    0.00006     -0.159  25.697095  0.000e+00
    24.2166    0.00007     -0.159  25.697176  0.000e+00
    24.3804    0.00007     -0.159  25.697257  0.000e+00
    24.3616    0.00006     -0.159  25.697338  0.000e+00
    24.3990    0.00006     -0.159  25.697419  0.000e+00
    24.4419    0.00006     -0.159  25.697500  0.000e+00
    24.4901    0.00006     -0.159  25.697581  0.000e+00
    24.5408    0.00006     -0.159  25.697662  0.000e+00
    24.5332    0.00006     -0.159  25.697743  0.000e+00
    24.5257    0.00006     -0.159  25.697824  0.000e+00
    24.5112    0.00007     -0.159  25.697905  0.000e+00
    24.4752    0.00007     -0.159  25.697986  0.000e+00
    24.4890    0.00006     -0.159  25.698067  0.000e+00
    24.4150    0.00006     -0.159  25.698148  0.000e+00
    24.4827    0.00006     -0.159  25.698229  0.000e+00
    24.5068    0.00006     -0.159  25.698310  0.000e+00
    24.5436    0.00006     -0.159  25.698391  0.000e+00
    24.5006    0.00006     -0.159  25.698472  0.000e+00
    24.4612    0.00006     -0.159  25.698553  0.000e+00
    24.5048    0.00007     -0.159  25.698634  0.000e+00
    24.5805    0.00007     -0.159  25.698715  0.000e+00
    24.6377    0.00006     -0.159  25.698796  0.000e+00
    24.5863    0.00007     -0.157  25.698877  0.000e+00
    24.6151    0.00006     -0.159  25.698958  0.000e+00
    24.5924    0.00006     -0.157  25.699039  0.000e+00
    24.6218    0.00006     -0.157  25.699120  0.000e+00
    24.6924    0.00006     -0.157  25.699201  0.000e+00
    24.7612    0.00006     -0.157  25.699282  0.000e+00
    24.8281    0.00006     -0.157  25.699363  0.000e+00
    24.8779    0.00006     -0.159  25.699444  0.000e+00
    24.8967    0.00006     -0.157  25.699525  0.000e+00
    24.9296    0.00006     -0.159  25.699606  0.000e+00
    24.9565    0.00006     -0.159  25.699688  0.000e+00
    24.9491    0.00006     -0.159  25.699769  0.000e+00
    24.9741    0.00006     -0.159  25.699850  0.000e+00
    24.9541    0.00006     -0.159  25.699931  0.000e+00
    24.8130    0.00007     -0.157  25.700012  0.000e+00
    24.8428    0.00006     -0.157  25.700093  0.000e+00
    24.8948    0.00006     -0.157  25.700174  0.000e+00
    24.6722    0.00007     -0.157  25.700255  0.000e+00
    24.2715    0.00007     -0.157  25.700336  0.000e+00
    24.1233    0.00007     -0.157  25.700417  0.000e+00
    24.0400    0.00007     -0.157  25.700498  0.000e+00
    24.1074    0.00007     -0.157  25.700579  0.000e+00
    24.1809    0.00007     -0.157  25.700660  0.000e+00
    24.1864    0.00007     -0.157  25.700741  0.000e+00
    24.1522    0.00007     -0.157  25.700822  0.000e+00
    24.0776    0.00007     -0.157  25.700903  0.000e+00
    24.0259    0.00007     -0.157  25.700984  0.000e+00
    24.0511    0.00007     -0.157  25.701065  0.000e+00
    24.0384    0.00007     -0.155  25.701146  0.000e+00
    24.0355    0.00007     -0.157  25.701227  0.000e+00
    24.0988    0.00007     -0.155  25.701308  0.000e+00
    23.9610    0.00007     -0.155  25.701389  0.000e+00
    24.0542    0.00007     -0.155  25.701470  0.000e+00
    23.9713    0.00007     -0.155  25.701551  0.000e+00
    23.9413    0.00007     -0.155  25.701632  0.000e+00
    23.8669    0.00007     -0.155  25.701713  0.000e+00
    23.9568    0.00007     -0.155  25.701794  0.000e+00
    23.9301    0.00007     -0.155  25.701875  0.000e+00
    24.0693    0.00007     -0.155  25.701956  0.000e+00
    24.0775    0.00007     -0.155  25.702037  0.000e+00
    24.0376    0.00007     -0.155  25.702118  0.000e+00
    23.9628    0.00007     -0.155  25.702199  0.000e+00
    24.0592    0.00007     -0.155  25.702280  0.000e+00
    24.0329    0.00007     -0.153  25.702361  0.000e+00
    24.0391    0.00007     -0.155  25.702442  0.000e+00
    24.0702    0.00007     -0.155  25.702523  0.000e+00
    24.1085    0.00008     -0.155  25.702604  0.000e+00
    24.0045    0.00007     -0.155  25.702685  0.000e+00
    24.0172    0.00007     -0.155  25.702766  0.000e+00
    24.0674    0.00007     -0.153  25.702847  0.000e+00
    24.1187    0.00007     -0.153  25.702928  0.000e+00
    24.1113    0.00008     -0.153  25.703009  0.000e+00
    24.1026    0.00007     -0.153  25.703090  0.000e+00
    24.1875    0.00008     -0.153  25.703171  0.000e+00
    24.1214    0.00007     -0.153  25.703252  0.000e+00
    24.0812    0.00007     -0.153  25.703333  0.000e+00
    23.9677    0.00007     -0.153  25.703414  0.000e+00
    23.9150    0.00007     -0.153  25.703495  0.000e+00
    23.9012    0.00008     -0.153  25.703576  0.000e+00
    23.8984    0.00007     -0.153  25.703657  0.000e+00
    23.9793    0.00008     -0.153  25.703738  0.000e+00
    24.1498    0.00008     -0.153  25.703819  0.000e+00
    24.1619    0.00008     -0.153  25.703900  0.000e+00
    24.1764    0.00007     -0.153  25.703981  0.000e+00
    24.1816    0.00007     -0.153  25.704062  0.000e+00
    24.1885    0.00007     -0.153  25.704144  0.000e+00
    24.2268    0.00007     -0.153  25.704225  0.000e+00
    24.2741    0.00007     -0.153  25.704306  0.000e+00
    24.2524    0.00007     -0.155  25.704387  0.000e+00
    24.1563    0.00008     -0.153  25.704468  0.000e+00
    24.1805    0.00008     -0.153  25.704549  0.000e+00
    24.1871    0.00008     -0.153  25.704630  0.000e+00
    24.2957    0.00007     -0.153  25.704711  0.000e+00
    24.2430    0.00007     -0.155  25.704792  0.000e+00
    24.0830    0.00007     -0.153  25.704873  0.000e+00
    23.9544    0.00007     -0.153  25.704954  0.000e+00
    23.9188    0.00008     -0.153  25.705035  0.000e+00
    23.8504    0.00007     -0.153  25.705116  0.000e+00
    23.8651    0.00008     -0.153  25.705197  0.000e+00
    23.9097    0.00007     -0.153  25.705278  0.000e+00
    23.9701    0.00008     -0.153  25.705359  0.000e+00
    23.9426    0.00008     -0.153  25.705440  0.000e+00
    24.0994    0.00008     -0.153  25.705521  0.000e+00
    24.0043    0.00008     -0.153  25.705602  0.000e+00
    24.0543    0.00008     -0.153  25.705683  0.000e+00
    23.9895    0.00008     -0.153  25.705764  0.000e+00
    24.0255    0.00008     -0.153  25.705845  0.000e+00
    23.9296    0.00008     -0.153  25.705926  0.000e+00
    24.0002    0.00008     -0.153  25.706007  0.000e+00
    24.0297    0.00008     -0.153  25.706088  0.000e+00
    24.0540    0.00008     -0.153  25.706169  0.000e+00
    23.9365    0.00008     -0.153  25.706250  0.000e+00
    23.9799    0.00008     -0.153  25.706331  0.000e+00
    23.9236    0.00008     -0.153  25.706412  0.000e+00
    24.1296    0.00008     -0.153  25.706493  0.000e+00
    24.1373    0.00008     -0.153  25.706574  0.000e+00
    24.0747    0.00007     -0.153  25.706655  0.000e+00
    24.0969    0.00008     -0.153  25.706736  0.000e+00
    24.0474    0.00008     -0.153  25.706817  0.000e+00
    24.1169    0.00008     -0.153  25.706898  0.000e+00
    24.1044    0.00008     -0.153  25.706979  0.000e+00
    24.1191    0.00008     -0.155  25.707060  0.000e+00
    24.1302    0.00008     -0.153  25.707141  0.000e+00
    24.3217    0.00007     -0.153  25.707222  0.000e+00
    24.5837    0.00008     -0.153  25.707303  0.000e+00
    24.7772    0.00007     -0.153  25.707384  0.000e+00
    24.9578    0.00007     -0.155  25.707465  0.000e+00
    24.9620    0.00007     -0.155  25.707546  0.000e+00
    29.2255    2.81060     -0.087  25.707627  0.000e+00
    29.7726    2.79344     -0.049  25.707708  0.000e+00
    29.7806    2.84150     -0.080  25.707789  0.000e+00
    29.7736    2.80578     -0.072  25.707870  0.000e+00
    29.7874    2.81600     -0.009  25.707951  0.000e+00
    29.7858    2.83224      0.017  25.708032  0.000e+00
    29.7516    2.83185      0.219  25.708113  0.000e+00
    29.7113    2.84874      0.178  25.708194  0.000e+00
    29.7824    2.89709     -0.044  25.708275  0.000e+00
    29.7900    2.89265     -0.047  25.708356  0.000e+00
    29.7915    2.91227      0.129  25.708437  0.000e+00
    29.7362    2.90311      0.361  25.708519  0.000e+00
    29.7773    2.91954      0.044  25.708600  0.000e+00
    29.7872    2.90687     -0.062  25.708681  0.000e+00
    28.8651    0.09618     -0.177  25.708762  0.000e+00
    27.4873    0.00005     -0.179  25.708843  0.000e+00
    26.9614    0.00006     -0.177  25.708924  0.000e+00
    26.7138    0.00006     -0.175  25.709005  0.000e+00
    26.9085    0.00005     -0.173  25.709086  0.000e+00
    26.9018    0.00006     -0.175  25.709167  0.000e+00
    26.9477    0.00006     -0.173  25.709248  0.000e+00
    26.7016    0.00006     -0.173  25.709329  0.000e+00
    26.2431    0.00006     -0.171  25.709410  0.000e+00
    26.0934    0.00006     -0.170  25.709491  0.000e+00
    25.8387    0.00006     -0.170  25.709572  0.000e+00
    25.7276    0.00006     -0.170  25.709653  0.000e+00
    25.7260    0.00007     -0.170  25.709734  0.000e+00
    25.3914    0.00007     -0.170  25.709815  0.000e+00
    25.1762    0.00007     -0.168  25.709896  0.000e+00
    25.1565    0.00006     -0.168  25.709977  0.000e+00
    24.9071    0.00007     -0.166  25.710058  0.000e+00
    24.7826    0.00007     -0.164  25.710139  0.000e+00
    24.7472    0.00007     -0.162  25.710220  0.000e+00
    24.8627    0.00006     -0.162  25.710301  0.000e+00
    24.9939    0.00007     -0.162  25.710382  0.000e+00
    24.8155    0.00007     -0.159  25.710463  0.000e+00
    24.8987    0.00006     -0.159  25.710544  0.000e+00
    24.9065    0.00006     -0.157  25.710625  0.000e+00
    25.1889    0.00006     -0.157  25.710706  0.000e+00
    25.3317    0.00007     -0.155  25.710787  0.000e+00
    25.4687    0.00007     -0.155  25.710868  0.000e+00
    25.3948    0.00007     -0.155  25.710949  0.000e+00
    25.4590    0.00007     -0.153  25.711030  0.000e+00
    25.4505    0.00006     -0.153  25.711111  0.000e+00
    25.3748    0.00007     -0.153  25.711192  0.000e+00
    25.4207    0.00007     -0.153  25.711273  0.000e+00
    25.5241    0.00006     -0.152  25.711354  0.000e+00
    25.5725    0.00007     -0.152  25.711435  0.000e+00
    25.6891    0.00007     -0.152  25.711516  0.000e+00
    25.7228    0.00007     -0.152  25.711597  0.000e+00
    29.1290    2.89180     -0.134  25.711678  0.000e+00
    29.1863    2.90063     -0.089  25.711759  0.000e+00
    29.1917    2.90596     -0.090  25.711840  0.000e+00
    29.1884    2.90256     -0.040  25.711921  0.000e+00
    29.1907    2.90400     -0.089  25.712002  0.000e+00
    29.1996    2.90152      0.170  25.712083  0.000e+00
    29.1998    2.90241      0.321  25.712164  0.000e+00
    29.1973    2.90429      0.485  25.712245  0.000e+00
    29.1965    2.90894      0.526  25.712326  0.000e+00
    29.2259    2.91663      0.931  25.712407  0.000e+00
    29.2222    2.92160      0.681  25.712488  0.000e+00
    29.2013    2.92735      0.492  25.712569  0.000e+00
    29.1970    2.92655      0.476  25.712650  0.000e+00
    29.1973    2.92427      0.084  25.712731  0.000e+00
    28.5228    0.08589     -0.144  25.712812  0.000e+00
    27.7846    0.00006     -0.143  25.712894  0.000e+00
    27.3395    0.00006     -0.148  25.712975  0.000e+00
    27.2032    0.00006     -0.148  25.713056  0.000e+00
    27.0589    0.00006     -0.150  25.713137  0.000e+00
    26.8760    0.00006     -0.150  25.713218  0.000e+00
    26.6466    0.00006     -0.150  25.713299  0.000e+00
    26.4741    0.00007     -0.150  25.713380  0.000e+00
    26.4553    0.00007     -0.150  25.713461  0.000e+00
    26.4199    0.00007     -0.152  25.713542  0.000e+00
    26.0560    0.00007     -0.150  25.713623  0.000e+00
    25.3899    0.00007     -0.150  25.713704  0.000e+00
    25.0195    0.00008     -0.150  25.713785  0.000e+00
    24.8366    0.00008     -0.150  25.713866  0.000e+00
    24.5247    0.00008     -0.150  25.713947  0.000e+00
    24.4129    0.00008     -0.150  25.714028  0.000e+00
    24.2877    0.00008     -0.148  25.714109  0.000e+00
    24.3097    0.00008     -0.148  25.714190  0.000e+00
    24.2468    0.00008     -0.146  25.714271  0.000e+00
    24.2799    0.00008     -0.146  25.714352  0.000e+00
    24.2969    0.00007     -0.144  25.714433  0.000e+00
    24.3389    0.00008     -0.144  25.714514  0.000e+00
    24.3593    0.00008     -0.144  25.714595  0.000e+00
    24.5063    0.00008     -0.144  25.714676  0.000e+00
    24.6395    0.00008     -0.146  25.714757  0.000e+00
    24.6186    0.00008     -0.143  25.714838  0.000e+00
    24.4912    0.00008     -0.143  25.714919  0.000e+00
    24.5071    0.00008     -0.141  25.715000  0.000e+00
    24.4095    0.00008     -0.141  25.715081  0.000e+00
    24.5532    0.00008     -0.141  25.715162  0.000e+00
    24.5922    0.00008     -0.143  25.715243  0.000e+00
    24.4179    0.00008     -0.139  25.715324  0.000e+00
    24.3834    0.00008     -0.137  25.715405  0.000e+00
    24.3396    0.00008     -0.134  25.715486  0.000e+00
    24.3656    0.00008     -0.135  25.715567  0.000e+00
    24.3999    0.00008     -0.135  25.715648  0.000e+00
    24.4157    0.00008     -0.135  25.715729  0.000e+00
    24.3280    0.00008     -0.132  25.715810  0.000e+00
    24.4061    0.00008     -0.132  25.715891  0.000e+00
    24.3860    0.00008     -0.135  25.715972  0.000e+00
    24.5005    0.00008     -0.135  25.716053  0.000e+00
    24.5515    0.00008     -0.134  25.716134  0.000e+00
    24.5522    0.00008     -0.130  25.716215  0.000e+00
    24.6369    0.00008     -0.130  25.716296  0.000e+00
    24.6163    0.00008     -0.132  25.716377  0.000e+00
    24.5512    0.00008     -0.132  25.716458  0.000e+00
    24.5375    0.00008     -0.134  25.716539  0.000e+00
    24.6026    0.00008     -0.132  25.716620  0.000e+00
    24.5630    0.00008     -0.132  25.716701  0.000e+00
    24.5561    0.00007     -0.130  25.716782  0.000e+00
    24.4931    0.00008     -0.128  25.716863  0.000e+00
    24.7677    0.00008     -0.128  25.716944  0.000e+00
    24.7088    0.00007     -0.130  25.717025  0.000e+00
    24.8593    0.00007     -0.128  25.717106  0.000e+00
    24.8847    0.00008     -0.130  25.717187  0.000e+00
    24.8951    0.00007     -0.130  25.717269  0.000e+00
    24.8990    0.00008     -0.128  25.717350  0.000e+00
    24.7907    0.00007     -0.128  25.717431  0.000e+00
    24.8937    0.00008     -0.130  25.717512  0.000e+00
    24.8323    0.00008     -0.132  25.717593  0.000e+00
    24.8211    0.00008     -0.134  25.717674  0.000e+00
    24.8930    0.00008     -0.135  25.717755  0.000e+00
    24.9260    0.00008     -0.134  25.717836  0.000e+00
    29.3494    2.83179     -0.114  25.717917  0.000e+00
    29.4680    2.82986     -0.069  25.717998  0.000e+00
    29.4804    2.82589     -0.065  25.718079  0.000e+00
    29.4972    2.81396     -0.071  25.718160  0.000e+00
    29.5085    2.82304     -0.049  25.718241  0.000e+00
    29.4829    2.84456      0.016  25.718322  0.000e+00
    29.5153    2.85104      0.170  25.718403  0.000e+00
    29.5181    2.85450      0.233  25.718484  0.000e+00
    29.5201    2.85642      0.201  25.718565  0.000e+00
    29.5160    2.85860      0.302  25.718646  0.000e+00
    29.5169    2.86442      0.471  25.718727  0.000e+00
    29.5175    2.87286      0.451  25.718808  0.000e+00
    29.5186    2.87108      0.528  25.718889  0.000e+00
    29.5147    2.87142      0.679  25.718970  0.000e+00
    29.5175    2.87097      0.836  25.719051  0.000e+00
    29.5177    2.87413      1.066  25.719132  0.000e+00
    29.5210    2.87688      1.154  25.719213  0.000e+00
    29.5216    2.87975      1.014  25.719294  0.000e+00
    29.5226    2.88198      0.670  25.719375  0.000e+00
    29.5196    2.88217      0.625  25.719456  0.000e+00
    29.5160    2.88186      0.463  25.719537  0.000e+00
    29.5160    2.88199      0.573  25.719618  0.000e+00
    29.5187    2.88289      1.167  25.719699  0.000e+00
    29.5106    2.88344      0.514  25.719780  0.000e+00
    29.5031    2.88255      0.158  25.719861  0.000e+00
    29.0005    0.09262     -0.166  25.719942  0.000e+00
    27.7324    0.00006     -0.164  25.720023  0.000e+00
    26.8125    0.00006     -0.155  25.720104  0.000e+00
    26.4598    0.00007     -0.155  25.720185  0.000e+00
    26.3115    0.00007     -0.153  25.720266  0.000e+00
    26.1644    0.00007     -0.155  25.720347  0.000e+00
    25.8759    0.00007     -0.153  25.720428  0.000e+00
    25.3335    0.00007     -0.153  25.720509  0.000e+00
    25.1750    0.00007     -0.153  25.720590  0.000e+00
    25.2235    0.00007     -0.152  25.720671  0.000e+00
    24.9554    0.00007     -0.150  25.720752  0.000e+00
    25.1469    0.00007     -0.150  25.720833  0.000e+00
    25.3181    0.00007     -0.150  25.720914  0.000e+00
    25.3459    0.00007     -0.150  25.720995  0.000e+00
    25.1521    0.00007     -0.148  25.721076  0.000e+00
    25.0300    0.00008     -0.148  25.721157  0.000e+00
    24.8197    0.00008     -0.148  25.721238  0.000e+00
    24.8948    0.00008     -0.146  25.721319  0.000e+00
    24.9047    0.00008     -0.143  25.721400  0.000e+00
    24.7489    0.00008     -0.144  25.721481  0.000e+00
    24.7189    0.00007     -0.144  25.721562  0.000e+00
    24.8159    0.00008     -0.143  25.721644  0.000e+00
    24.6639    0.00008     -0.141  25.721725  0.000e+00
    24.5902    0.00008     -0.141  25.721806  0.000e+00
    24.4608    0.00008     -0.143  25.721887  0.000e+00
    24.4637    0.00008     -0.139  25.721968  0.000e+00
    24.5017    0.00008     -0.141  25.722049  0.000e+00
    24.4349    0.00008     -0.139  25.722130  0.000e+00
    24.5182    0.00008     -0.135  25.722211  0.000e+00
    24.6761    0.00008     -0.139  25.722292  0.000e+00
    24.5870    0.00008     -0.137  25.722373  0.000e+00
    24.4753    0.00008     -0.139  25.722454  0.000e+00
    24.2871    0.00008     -0.137  25.722535  0.000e+00
    24.3298    0.00008     -0.137  25.722616  0.000e+00
    24.4226    0.00008     -0.135  25.722697  0.000e+00
    24.3864    0.00008     -0.137  25.722778  0.000e+00
    24.3131    0.00008     -0.134  25.722859  0.000e+00
    24.2368    0.00008     -0.134  25.722940  0.000e+00
    24.3677    0.00008     -0.135  25.723021  0.000e+00
    24.4755    0.00009     -0.132  25.723102  0.000e+00
    24.5293    0.00008     -0.135  25.723183  0.000e+00
    24.5644    0.00008     -0.134  25.723264  0.000e+00
    24.6228    0.00008     -0.135  25.723345  0.000e+00
    24.6216    0.00008     -0.134  25.723426  0.000e+00
    24.7114    0.00008     -0.134  25.723507  0.000e+00
    24.8424    0.00008     -0.134  25.723588  0.000e+00
    24.9832    0.00008     -0.135  25.723669  0.000e+00
    25.0410    0.00008     -0.135  25.723750  0.000e+00
    25.0363    0.00008     -0.134  25.723831  0.000e+00
    25.0298    0.00008     -0.134  25.723912  0.000e+00
    25.0483    0.00008     -0.135  25.723993  0.000e+00
    25.1503    0.00008     -0.135  25.724074  0.000e+00
    25.2365    0.00007     -0.135  25.724155  0.000e+00
    29.1186    2.71494     -0.018  25.724236  0.000e+00
    29.3025    2.71191     -0.065  25.724317  0.000e+00
    29.2977    2.70417     -0.069  25.724398  0.000e+00
    29.2869    2.70145     -0.051  25.724479  0.000e+00
    29.2984    2.71475     -0.078  25.724560  0.000e+00
    29.3048    2.73302     -0.089  25.724641  0.000e+00
    29.3063    2.73904     -0.040  25.724722  0.000e+00
    29.3017    2.74084     -0.015  25.724803  0.000e+00
    29.3088    2.74202     -0.049  25.724884  0.000e+00
    29.2897    2.73918     -0.063  25.724965  0.000e+00
    29.3089    2.74210      0.082  25.725046  0.000e+00
    29.3148    2.74319      0.158  25.725127  0.000e+00
    29.3110    2.74579      0.215  25.725208  0.000e+00
    29.3125    2.74498      0.354  25.725289  0.000e+00
    29.2950    2.74847      0.445  25.725370  0.000e+00
    29.3222    2.74966      0.579  25.725451  0.000e+00
    29.3754    2.75780      0.708  25.725532  0.000e+00
    29.4108    2.76849      0.832  25.725613  0.000e+00
    29.4533    2.78860      1.001  25.725694  0.000e+00
    29.4978    2.81679      1.212  25.725775  0.000e+00
    29.5048    2.82225      1.525  25.725856  0.000e+00
    29.5275    2.83688      1.773  25.725937  0.000e+00
    29.5303    2.83994      1.776  25.726019  0.000e+00
    29.5208    2.84019      1.819  25.726100  0.000e+00
    29.5228    2.84938      1.641  25.726181  0.000e+00
    29.5296    2.85112      1.796  25.726262  0.000e+00
    29.5128    2.85347      1.742  25.726343  0.000e+00
    29.5011    2.85239      1.293  25.726424  0.000e+00
    29.4795    2.84858      0.827  25.726505  0.000e+00
    29.3811    2.84189      0.570  25.726586  0.000e+00
    29.3340    2.80716      0.294  25.726667  0.000e+00
    29.3228    2.81136      0.181  25.726748  0.000e+00
    29.3160    2.77708     -0.114  25.726829  0.000e+00
    29.1810    0.66395     -0.150  25.726910  0.000e+00
    27.6150    0.00006     -0.146  25.726991  0.000e+00
    26.7229    0.00007     -0.146  25.727072  0.000e+00
    26.4962    0.00007     -0.144  25.727153  0.000e+00
    26.3583    0.00007     -0.144  25.727234  0.000e+00
    25.9999    0.00008     -0.143  25.727315  0.000e+00
    25.8036    0.00008     -0.143  25.727396  0.000e+00
    25.6309    0.00008     -0.143  25.727477  0.000e+00
    25.5296    0.00008     -0.143  25.727558  0.000e+00
    25.4768    0.00008     -0.141  25.727639  0.000e+00
    25.3062    0.00008     -0.141  25.727720  0.000e+00
    25.2761    0.00008     -0.141  25.727801  0.000e+00
    24.9507    0.00008     -0.139  25.727882  0.000e+00
    24.7463    0.00008     -0.139  25.727963  0.000e+00
    24.6717    0.00008     -0.139  25.728044  0.000e+00
    24.3977    0.00008     -0.139  25.728125  0.000e+00
    24.3544    0.00008     -0.135  25.728206  0.000e+00
    24.4811    0.00008     -0.137  25.728287  0.000e+00
    24.4503    0.00008     -0.135  25.728368  0.000e+00
    24.4539    0.00008     -0.134  25.728449  0.000e+00
    24.1170    0.00008     -0.135  25.728530  0.000e+00
    24.1160    0.00008     -0.134  25.728611  0.000e+00
    24.2355    0.00008     -0.132  25.728692  0.000e+00
    24.4526    0.00008     -0.132  25.728773  0.000e+00
    24.4742    0.00008     -0.132  25.728854  0.000e+00
    24.6095    0.00008     -0.132  25.728935  0.000e+00
    24.7410    0.00008     -0.130  25.729016  0.000e+00
    24.8656    0.00008     -0.130  25.729097  0.000e+00
    24.9414    0.00008     -0.130  25.729178  0.000e+00
    25.0354    0.00008     -0.130  25.729259  0.000e+00
    25.0415    0.00008     -0.130  25.729340  0.000e+00
    25.0943    0.00008     -0.130  25.729421  0.000e+00
    25.1624    0.00008     -0.128  25.729502  0.000e+00
    25.2518    0.00008     -0.128  25.729583  0.000e+00
    25.3066    0.00008     -0.128  25.729664  0.000e+00
    24.9084    0.00008     -0.126  25.729745  0.000e+00
    24.6993    0.00008     -0.128  25.729826  0.000e+00
    24.6291    0.00008     -0.128  25.729907  0.000e+00
    24.8331    0.00008     -0.128  25.729988  0.000e+00
    24.5597    0.00008     -0.128  25.730069  0.000e+00
    24.0675    0.00009     -0.128  25.730150  0.000e+00
    24.1172    0.00008     -0.126  25.730231  0.000e+00
    24.2868    0.00008     -0.128  25.730313  0.000e+00
    24.4759    0.00008     -0.128  25.730394  0.000e+00
    24.1421    0.00008     -0.126  25.730475  0.000e+00
    24.0963    0.00008     -0.128  25.730556  0.000e+00
    24.0379    0.00008     -0.126  25.730637  0.000e+00
    24.1324    0.00009     -0.126  25.730718  0.000e+00
    24.2272    0.00009     -0.126  25.730799  0.000e+00
    24.3221    0.00008     -0.126  25.730880  0.000e+00
    24.1998    0.00008     -0.126  25.730961  0.000e+00
    24.2600    0.00008     -0.126  25.731042  0.000e+00
    24.4001    0.00008     -0.128  25.731123  0.000e+00
    24.4812    0.00008     -0.126  25.731204  0.000e+00
    28.6706    2.56911     -0.047  25.731285  0.000e+00
    28.9084    2.63198     -0.027  25.731366  0.000e+00
    29.1059    2.65123     -0.017  25.731447  0.000e+00
    29.1230    2.66137     -0.013  25.731528  0.000e+00
    29.0584    2.67275      0.010  25.731609  0.000e+00
    29.1625    2.68305      0.079  25.731690  0.000e+00
    29.2677    2.69317      0.222  25.731771  0.000e+00
    29.2829    2.71154      0.343  25.731852  0.000e+00
    29.2836    2.71087      0.359  25.731933  0.000e+00
    29.3330    2.72356      0.546  25.732014  0.000e+00
    29.3418    2.72503      0.625  25.732095  0.000e+00
    29.3427    2.73300      0.726  25.732176  0.000e+00
    29.3501    2.73174      0.803  25.732257  0.000e+00
    29.3495    2.72907      0.974  25.732338  0.000e+00
    29.3488    2.73993      1.152  25.732419  0.000e+00
    29.3472    2.74878      1.381  25.732500  0.000e+00
    29.3436    2.75371      1.512  25.732581  0.000e+00
    29.3199    2.75766      1.739  25.732662  0.000e+00
    29.2998    2.76025      1.924  25.732743  0.000e+00
    29.2865    2.76132      2.125  25.732824  0.000e+00
    29.2744    2.75999      2.339  25.732905  0.000e+00
    29.2751    2.75965      2.544  25.732986  0.000e+00
    29.2678    2.76216      2.708  25.733067  0.000e+00
    29.2663    2.76494      2.701  25.733148  0.000e+00
    29.2626    2.76545      2.836  25.733229  0.000e+00
    29.2607    2.76775      3.046  25.733310  0.000e+00
    29.2639    2.76786      2.487  25.733391  0.000e+00
    29.3387    2.75724      0.196  25.733472  0.000e+00
    27.6741    0.01409     -0.159  25.733553  0.000e+00
    26.2044    0.00007     -0.153  25.733634  0.000e+00
    25.7606    0.00008     -0.152  25.733715  0.000e+00
    25.3463    0.00007     -0.153  25.733796  0.000e+00
    25.2251    0.00008     -0.144  25.733877  0.000e+00
    25.2908    0.00008     -0.144  25.733958  0.000e+00
    25.3528    0.00008     -0.144  25.734039  0.000e+00
    25.2708    0.00008     -0.143  25.734120  0.000e+00
    25.2720    0.00007     -0.143  25.734201  0.000e+00
    25.3694    0.00007     -0.143  25.734282  0.000e+00
    25.2426    0.00008     -0.141  25.734363  0.000e+00
    24.4649    0.00008     -0.143  25.734444  0.000e+00
    24.4797    0.00008     -0.141  25.734525  0.000e+00
    24.8712    0.00008     -0.141  25.734606  0.000e+00
    25.1007    0.00008     -0.141  25.734688  0.000e+00
    25.2043    0.00008     -0.139  25.734769  0.000e+00
    25.2650    0.00008     -0.139  25.734850  0.000e+00
    25.3354    0.00007     -0.137  25.734931  0.000e+00
    25.2964    0.00007     -0.139  25.735012  0.000e+00
    25.2648    0.00007     -0.139  25.735093  0.000e+00
    25.2657    0.00007     -0.137  25.735174  0.000e+00
    24.9853    0.00007     -0.137  25.735255  0.000e+00
    26.8076    1.03992     -0.141  25.735336  0.000e+00
    29.1897    2.75325     -0.074  25.735417  0.000e+00
    29.1967    2.75427     -0.049  25.735498  0.000e+00
    29.1921    2.74623      0.032  25.735579  0.000e+00
    29.2332    2.76473      0.160  25.735660  0.000e+00
    29.2387    2.76560      0.437  25.735741  0.000e+00
    29.2495    2.76291      0.699  25.735822  0.000e+00
    29.2520    2.76267      0.980  25.735903  0.000e+00
    29.2490    2.76505      1.267  25.735984  0.000e+00
    29.2507    2.76754      1.598  25.736065  0.000e+00
    29.2495    2.76867      1.886  25.736146  0.000e+00
    29.2449    2.76919      2.084  25.736227  0.000e+00
    29.2485    2.77214      1.881  25.736308  0.000e+00
    29.2484    2.77230      1.767  25.736389  0.000e+00
    29.2499    2.77226      1.569  25.736470  0.000e+00
    29.2472    2.77266      1.375  25.736551  0.000e+00
    29.2463    2.77299      1.028  25.736632  0.000e+00
    29.2498    2.77328      0.667  25.736713  0.000e+00
    29.2495    2.77368      0.219  25.736794  0.000e+00
    29.2372    2.77391     -0.078  25.736875  0.000e+00
    27.1895    0.00006     -0.141  25.736956  0.000e+00
    26.4014    0.00004     -0.150  25.737037  0.000e+00
    26.2603    0.00007     -0.150  25.737118  0.000e+00
    26.0086    0.00008     -0.150  25.737199  0.000e+00
    25.8007    0.00008     -0.148  25.737280  0.000e+00
    25.6490    0.00008     -0.148  25.737361  0.000e+00
    25.5547    0.00008     -0.148  25.737442  0.000e+00
    25.3271    0.00008     -0.148  25.737523  0.000e+00
    25.2585    0.00008     -0.148  25.737604  0.000e+00
    25.3085    0.00008     -0.148  25.737685  0.000e+00
    25.2920    0.00008     -0.146  25.737766  0.000e+00
    25.3069    0.00008     -0.146  25.737847  0.000e+00
    25.4147    0.00008     -0.148  25.737928  0.000e+00
    25.3523    0.00008     -0.146  25.738009  0.000e+00
    25.3608    0.00008     -0.146  25.738090  0.000e+00
    25.4835    0.00008     -0.146  25.738171  0.000e+00
    25.4970    0.00008     -0.146  25.738252  0.000e+00
    25.5600    0.00008     -0.144  25.738333  0.000e+00
    25.6339    0.00008     -0.144  25.738414  0.000e+00
    25.7031    0.00008     -0.144  25.738495  0.000e+00
    25.7533    0.00008     -0.144  25.738576  0.000e+00
    25.6607    0.00008     -0.144  25.738657  0.000e+00
    25.7296    0.00008     -0.144  25.738738  0.000e+00
    25.7477    0.00008     -0.143  25.738819  0.000e+00
    25.7674    0.00008     -0.143  25.738900  0.000e+00
    25.8215    0.00008     -0.143  25.738981  0.000e+00
    25.7906    0.00008     -0.143  25.739062  0.000e+00
    25.2191    0.00008     -0.143  25.739144  0.000e+00
    24.9884    1.93407     -0.071  25.739225  0.000e+00
    29.2569    2.71021     -0.108  25.739306  0.000e+00
    29.2671    2.71257     -0.049  25.739387  0.000e+00
    29.2615    2.70762     -0.042  25.739468  0.000e+00
    29.2792    2.71742     -0.015  25.739549  0.000e+00
    29.2647    2.71889     -0.074  25.739630  0.000e+00
    29.2759    2.73685      0.133  25.739711  0.000e+00
    29.2830    2.73930      0.347  25.739792  0.000e+00
    29.2819    2.74161      0.512  25.739873  0.000e+00
    29.2795    2.74891      0.492  25.739954  0.000e+00
    29.2747    2.74770      0.516  25.740035  0.000e+00
    29.2764    2.74946      0.546  25.740116  0.000e+00
    29.2861    2.74871      0.327  25.740197  0.000e+00
    29.2859    2.74970      0.402  25.740278  0.000e+00
    29.2821    2.75188      0.392  25.740359  0.000e+00
    29.2885    2.75321      0.334  25.740440  0.000e+00
    29.2795    2.75392      0.082  25.740521  0.000e+00
    29.2827    2.75332      0.156  25.740602  0.000e+00
    29.2540    2.75332     -0.049  25.740683  0.000e+00
    29.2824    2.75378      0.014  25.740764  0.000e+00
    29.2528    2.50899     -0.141  25.740845  0.000e+00
    26.9070    0.03873     -0.139  25.740926  0.000e+00
    26.3947    0.00009     -0.137  25.741007  0.000e+00
    26.2892    0.00007     -0.135  25.741088  0.000e+00
    26.3156    0.00008     -0.137  25.741169  0.000e+00
    26.1476    0.00007     -0.137  25.741250  0.000e+00
    25.8015    0.00008     -0.137  25.741331  0.000e+00
    25.4740    0.00008     -0.135  25.741412  0.000e+00
    25.3195    0.00007     -0.137  25.741493  0.000e+00
    25.1256    0.00006     -0.134  25.741574  0.000e+00
    24.9930    0.00008     -0.135  25.741655  0.000e+00
    25.0501    0.00008     -0.134  25.741736  0.000e+00
    24.9802    0.00008     -0.132  25.741817  0.000e+00
    24.7777    0.00008     -0.137  25.741898  0.000e+00
    24.6791    0.00008     -0.135  25.741979  0.000e+00
    24.4878    0.00008     -0.134  25.742060  0.000e+00
    24.3209    0.00008     -0.132  25.742141  0.000e+00
    24.2490    0.00008     -0.134  25.742222  0.000e+00
    23.9968    0.00008     -0.134  25.742303  0.000e+00
    24.0760    0.00009     -0.132  25.742384  0.000e+00
    24.0219    0.00009     -0.132  25.742465  0.000e+00
    24.1715    0.00008     -0.130  25.742546  0.000e+00
    24.3279    0.00008     -0.132  25.742627  0.000e+00
    24.4030    0.00008     -0.132  25.742708  0.000e+00
    24.3309    0.00009     -0.130  25.742789  0.000e+00
    24.2505    0.00008     -0.130  25.742870  0.000e+00
    24.3884    0.00008     -0.130  25.742951  0.000e+00
    24.3095    0.00008     -0.128  25.743032  0.000e+00
    24.2625    0.00008     -0.128  25.743113  0.000e+00
    24.2964    0.00008     -0.125  25.743194  0.000e+00
    24.2624    0.00009     -0.126  25.743275  0.000e+00
    24.3809    0.00008     -0.128  25.743356  0.000e+00
    24.3891    0.00008     -0.126  25.743437  0.000e+00
    24.3110    0.00008     -0.125  25.743519  0.000e+00
    24.4217    0.00008     -0.125  25.743600  0.000e+00
    24.4110    0.00008     -0.125  25.743681  0.000e+00
    24.3739    0.00008     -0.125  25.743762  0.000e+00
    24.3210    0.00008     -0.126  25.743843  0.000e+00
    24.2245    0.00008     -0.126  25.743924  0.000e+00
    24.2717    0.00008     -0.125  25.744005  0.000e+00
    24.2378    0.00008     -0.126  25.744086  0.000e+00
    24.1623    0.00008     -0.125  25.744167  0.000e+00
    24.0978    0.00008     -0.125  25.744248  0.000e+00
    24.2269    0.00008     -0.125  25.744329  0.000e+00
    24.1741    0.00008     -0.126  25.744410  0.000e+00
    24.0985    0.00008     -0.125  25.744491  0.000e+00
    24.1179    0.00008     -0.123  25.744572  0.000e+00
    24.2365    0.00008     -0.126  25.744653  0.000e+00
    24.2133    0.00008     -0.125  25.744734  0.000e+00
    24.2368    0.00008     -0.123  25.744815  0.000e+00
    24.3104    0.00008     -0.125  25.744896  0.000e+00
    24.3614    0.00008     -0.125  25.744977  0.000e+00
    24.2548    0.00008     -0.125  25.745058  0.000e+00
    24.1871    0.00008     -0.125  25.745139  0.000e+00
    24.1852    0.00008     -0.126  25.745220  0.000e+00
    23.9620    0.00008     -0.125  25.745301  0.000e+00
    23.9468    0.00008     -0.125  25.745382  0.000e+00
    23.9887    0.00008     -0.125  25.745463  0.000e+00
    23.9526    0.00008     -0.126  25.745544  0.000e+00
    24.1152    0.00008     -0.125  25.745625  0.000e+00
    24.0431    0.00008     -0.125  25.745706  0.000e+00
    24.0346    0.00008     -0.125  25.745787  0.000e+00
    24.0186    0.00008     -0.125  25.745868  0.000e+00
    24.0595    0.00008     -0.123  25.745949  0.000e+00
    24.0969    0.00008     -0.125  25.746030  0.000e+00
    24.1048    0.00008     -0.125  25.746111  0.000e+00
    23.9784    0.00008     -0.125  25.746192  0.000e+00
    23.8636    0.00008     -0.125  25.746273  0.000e+00
    23.8561    0.00008     -0.126  25.746354  0.000e+00
    23.7296    0.00008     -0.126  25.746435  0.000e+00
    23.9512    0.00008     -0.125  25.746516  0.000e+00
    23.9233    0.00008     -0.126  25.746597  0.000e+00
    23.9346    0.00008     -0.126  25.746678  0.000e+00
    23.9399    0.00008     -0.126  25.746759  0.000e+00
    23.9150    0.00008     -0.126  25.746840  0.000e+00
    23.8578    0.00008     -0.126  25.746921  0.000e+00
    23.9486    0.00008     -0.128  25.747002  0.000e+00
    24.0745    0.00008     -0.130  25.747083  0.000e+00
    23.9701    0.00008     -0.126  25.747164  0.000e+00
    24.0521    0.00008     -0.128  25.747245  0.000e+00
    24.1371    0.00008     -0.126  25.747326  0.000e+00
    24.0956    0.00008     -0.126  25.747407  0.000e+00
    24.3915    0.00008     -0.128  25.747488  0.000e+00
    24.2665    0.00008     -0.126  25.747569  0.000e+00
    24.2323    0.00008     -0.128  25.747650  0.000e+00
    24.0750    0.00008     -0.130  25.747731  0.000e+00
    24.0573    0.00008     -0.126  25.747812  0.000e+00
    24.2511    0.00008     -0.126  25.747894  0.000e+00
    24.2882    0.00008     -0.128  25.747975  0.000e+00
    24.4488    0.00008     -0.128  25.748056  0.000e+00
    24.2703    0.00008     -0.126  25.748137  0.000e+00
    24.2469    0.00008     -0.126  25.748218  0.000e+00
    24.2899    0.00008     -0.130  25.748299  0.000e+00
    24.2256    0.00008     -0.126  25.748380  0.000e+00
    24.3674    0.00008     -0.128  25.748461  0.000e+00
    24.3924    0.00008     -0.132  25.748542  0.000e+00
    24.2364    0.00008     -0.126  25.748623  0.000e+00
    24.2395    0.00008     -0.128  25.748704  0.000e+00
    24.2909    0.00008     -0.128  25.748785  0.000e+00
    24.0947    0.00008     -0.128  25.748866  0.000e+00
    24.1021    0.00008     -0.128  25.748947  0.000e+00
    24.0019    0.00008     -0.126  25.749028  0.000e+00
    24.0221    0.00008     -0.130  25.749109  0.000e+00
    24.0650    0.00008     -0.130  25.749190  0.000e+00
    23.8964    0.00008     -0.126  25.749271  0.000e+00
    24.1522    0.00008     -0.130  25.749352  0.000e+00
    24.1688    0.00008     -0.132  25.749433  0.000e+00
    24.1583    0.00008     -0.132  25.749514  0.000e+00
    24.3006    0.00008     -0.128  25.749595  0.000e+00
    24.3307    0.00007     -0.132  25.749676  0.000e+00
    24.2640    0.00008     -0.130  25.749757  0.000e+00
    24.4485    0.00008     -0.130  25.749838  0.000e+00
    24.3590    0.00007     -0.132  25.749919  0.000e+00
    24.4428    0.00008     -0.130  25.750000  0.000e+00
    24.2782    0.00007     -0.130  25.750081  0.000e+00
    24.3388    0.00008     -0.130  25.750162  0.000e+00
    24.4293    0.00008     -0.130  25.750243  0.000e+00
    24.2313    0.00008     -0.128  25.750324  0.000e+00
    24.1447    0.00008     -0.130  25.750405  0.000e+00
    24.1553    0.00008     -0.132  25.750486  0.000e+00
    24.1449    0.00008     -0.132  25.750567  0.000e+00
    24.0862    0.00008     -0.130  25.750648  0.000e+00
    24.2003    0.00007     -0.132  25.750729  0.000e+00
    24.2763    0.00007     -0.128  25.750810  0.000e+00
    24.2700    0.00008     -0.132  25.750891  0.000e+00
    24.3420    0.00007     -0.132  25.750972  0.000e+00
    24.4208    0.00007     -0.132  25.751053  0.000e+00
    24.3312    0.00008     -0.132  25.751134  0.000e+00
    24.2998    0.00008     -0.132  25.751215  0.000e+00
    24.2727    0.00007     -0.132  25.751296  0.000e+00
    24.2594    0.00008     -0.132  25.751377  0.000e+00
    24.2418    0.00007     -0.132  25.751458  0.000e+00
    24.1567    0.00008     -0.132  25.751539  0.000e+00
    24.2026    0.00008     -0.134  25.751620  0.000e+00
    24.3541    0.00007     -0.134  25.751701  0.000e+00
    24.4323    0.00007     -0.134  25.751782  0.000e+00
    24.3429    0.00007     -0.132  25.751863  0.000e+00
    24.3079    0.00007     -0.132  25.751944  0.000e+00
    24.3152    0.00007     -0.134  25.752025  0.000e+00
    24.3958    0.00007     -0.134  25.752106  0.000e+00
    24.4019    0.00007     -0.134  25.752187  0.000e+00
    24.3442    0.00007     -0.134  25.752269  0.000e+00
    24.1827    0.00007     -0.132  25.752350  0.000e+00
    24.1949    0.00007     -0.132  25.752431  0.000e+00
    24.1264    0.00007     -0.134  25.752512  0.000e+00
    24.0882    0.00008     -0.132  25.752593  0.000e+00
    24.1256    0.00008     -0.134  25.752674  0.000e+00
    24.0935    0.00007     -0.134  25.752755  0.000e+00
    24.1389    0.00007     -0.132  25.752836  0.000e+00
    24.3053    0.00007     -0.134  25.752917  0.000e+00
    24.1868    0.00008     -0.134  25.752998  0.000e+00
    24.0222    0.00008     -0.132  25.753079  0.000e+00
    23.9722    0.00008     -0.132  25.753160  0.000e+00
    24.1279    0.00008     -0.134  25.753241  0.000e+00
    24.1368    0.00008     -0.134  25.753322  0.000e+00
    24.1009    0.00008     -0.134  25.753403  0.000e+00
    24.1698    0.00008     -0.132  25.753484  0.000e+00
    24.1365    0.00007     -0.134  25.753565  0.000e+00
    24.2213    0.00007     -0.135  25.753646  0.000e+00
    24.1759    0.00007     -0.135  25.753727  0.000e+00
    24.2292    0.00007     -0.135  25.753808  0.000e+00
    24.3077    0.00007     -0.134  25.753889  0.000e+00
    24.3395    0.00007     -0.134  25.753970  0.000e+00
    24.3482    0.00007     -0.135  25.754051  0.000e+00
    24.2217    0.00007     -0.132  25.754132  0.000e+00
    24.0667    0.00007     -0.134  25.754213  0.000e+00
    24.1909    0.00007     -0.134  25.754294  0.000e+00
    24.2916    0.00007     -0.134  25.754375  0.000e+00
    24.4088    0.00007     -0.134  25.754456  0.000e+00
    24.5015    0.00007     -0.134  25.754537  0.000e+00
    24.6470    0.00007     -0.134  25.754618  0.000e+00
    24.7448    0.00007     -0.134  25.754699  0.000e+00
    24.8555    0.00007     -0.134  25.754780  0.000e+00
    24.8654    0.00007     -0.134  25.754861  0.000e+00
    24.9549    0.00007     -0.135  25.754942  0.000e+00
    25.0433    0.00007     -0.135  25.755023  0.000e+00
    25.0174    0.00007     -0.137  25.755104  0.000e+00
    24.9308    0.00007     -0.135  25.755185  0.000e+00
    24.7924    0.00007     -0.132  25.755266  0.000e+00
    24.5904    0.00007     -0.132  25.755347  0.000e+00
    24.7957    0.00007     -0.132  25.755428  0.000e+00
    24.5342    0.00007     -0.132  25.755509  0.000e+00
    24.7875    0.00007     -0.132  25.755590  0.000e+00
    24.7694    0.00007     -0.134  25.755671  0.000e+00
    24.7816    0.00007     -0.134  25.755752  0.000e+00
    24.6860    0.00007     -0.132  25.755833  0.000e+00
    24.8942    0.00007     -0.134  25.755914  0.000e+00
    24.9956    0.00007     -0.134  25.755995  0.000e+00
    24.7469    0.00007     -0.134  25.756076  0.000e+00
    24.6299    0.00007     -0.134  25.756157  0.000e+00
    24.6270    0.00007     -0.134  25.756238  0.000e+00
    24.7050    0.00007     -0.134  25.756319  0.000e+00
    24.7381    0.00007     -0.134  25.756400  0.000e+00
    24.7275    0.00007     -0.134  25.756481  0.000e+00
    24.8252    0.00007     -0.134  25.756562  0.000e+00
    24.7197    0.00007     -0.134  25.756644  0.000e+00
    24.6772    0.00007     -0.134  25.756725  0.000e+00
    24.5456    0.00007     -0.134  25.756806  0.000e+00
    24.4885    0.00007     -0.134  25.756887  0.000e+00
    24.4801    0.00007     -0.132  25.756968  0.000e+00
    24.6126    0.00007     -0.135  25.757049  0.000e+00
    24.5409    0.00007     -0.135  25.757130  0.000e+00
    24.5482    0.00007     -0.135  25.757211  0.000e+00
    24.6089    0.00007     -0.135  25.757292  0.000e+00
    24.6988    0.00007     -0.135  25.757373  0.000e+00
    24.7497    0.00007     -0.135  25.757454  0.000e+00
    24.7258    0.00007     -0.135  25.757535  0.000e+00
    24.7615    0.00007     -0.135  25.757616  0.000e+00
    24.8004    0.00007     -0.135  25.757697  0.000e+00
    24.8881    0.00007     -0.135  25.757778  0.000e+00
    24.8055    0.00007     -0.134  25.757859  0.000e+00
    24.8263    0.00007     -0.135  25.757940  0.000e+00
    24.7685    0.00007     -0.132  25.758021  0.000e+00
    24.7308    0.00007     -0.135  25.758102  0.000e+00
    24.5704    0.00007     -0.135  25.758183  0.000e+00
    24.6322    0.00007     -0.153  25.758264  0.000e+00
    24.7038    0.00007     -0.153  25.758345  0.000e+00
    24.7650    0.00007     -0.153  25.758426  0.000e+00
    24.7767    0.00007     -0.153  25.758507  0.000e+00
    24.7767    0.00007     -0.153  25.758588  0.000e+00
    24.7567    0.00007     -0.153  25.758669  0.000e+00
    24.7567    0.00007     -0.153  25.758750  0.000e+00
    24.7776    0.00007     -0.153  25.758831  0.000e+00
    24.7987    0.00007     -0.153  25.758912  0.000e+00
    24.8017    0.00007     -0.153  25.758993  0.000e+00
    24.7500    0.00007     -0.153  25.759074  0.000e+00
    24.7242    0.00007     -0.153  25.759155  0.000e+00
    24.7657    0.00007     -0.153  25.759236  0.000e+00
    24.6961    0.00007     -0.153  25.759317  0.000e+00
    24.6471    0.00007     -0.153  25.759398  0.000e+00
    24.5994    0.00007     -0.153  25.759479  0.000e+00
    24.5988    0.00007     -0.155  25.759560  0.000e+00
    24.6767    0.00007     -0.153  25.759641  0.000e+00
    24.6975    0.00007     -0.155  25.759722  0.000e+00
    24.7011    0.00007     -0.155  25.759803  0.000e+00
    24.7083    0.00007     -0.153  25.759884  0.000e+00
    24.7399    0.00007     -0.155  25.759965  0.000e+00
    24.7714    0.00007     -0.155  25.760046  0.000e+00
    24.8345    0.00007     -0.157  25.760127  0.000e+00
    24.8199    0.00007     -0.157  25.760208  0.000e+00
    24.7733    0.00007     -0.157  25.760289  0.000e+00
    24.7333    0.00007     -0.157  25.760370  0.000e+00
    24.7501    0.00007     -0.157  25.760451  0.000e+00
    24.7961    0.00007     -0.157  25.760532  0.000e+00
    24.7771    0.00007     -0.157  25.760613  0.000e+00
    24.8371    0.00007     -0.157  25.760694  0.000e+00
    24.8764    0.00007     -0.157  25.760775  0.000e+00
    24.9173    0.00007     -0.157  25.760856  0.000e+00
    24.9339    0.00007     -0.157  25.760937  0.000e+00
    24.9285    0.00007     -0.157  25.761019  0.000e+00
